File: RAMAN/Raman_Ilum/HCS_MoS2_NF_Amonio.txt
3495.35	723.263
3486.44	1010.95
3477.51	1112.05
3468.57	1222
3459.61	1425.79
3450.63	1593.37
3441.64	1735.95
3432.63	1850.79
3423.6	1977.63
3414.56	2051.95
3405.5	2190.68
3396.42	2345.84
3387.33	2495.26
3378.22	2554.63
3369.1	2639.21
3359.96	2761.63
3350.8	2887.58
3341.62	3033.47
3332.43	3147.53
3323.22	3239.42
3314	3336.79
3304.75	3384.84
3295.5	3600.32
3286.22	4154.11
3276.93	5168.47
3267.62	6452.79
3258.29	7666.37
3248.95	8429.68
3239.59	8859.37
3230.21	9104.16
3220.82	9296
3211.41	9556.58
3201.98	9890.16
3192.53	10420.6
3183.07	10808.9
3173.59	11232.2
3164.1	11720.9
3154.58	12206.4
3145.05	12695.3
3135.5	13006.2
3125.94	13280.6
3116.36	13572.7
3106.76	13762.9
3097.14	14008.5
3087.5	14318.5
3077.85	14600.6
3068.18	14818.4
3058.5	14805.8
3048.8	14857.1
3039.07	15065.3
3029.34	15310.8
3019.58	15625.3
3009.81	16082.5
3000.01	16452.5
2990.21	16777.4
2980.38	17004.9
2970.54	17213.1
2960.67	17465.9
2950.8	17619.2
2940.9	17707.7
2930.98	17840.8
2921.05	17993.6
2911.1	18096.1
2901.13	18313.1
2891.15	18477.8
2881.15	18569
2871.12	18619.5
2861.09	18502.4
2851.03	18471.5
2840.95	18324.5
2830.86	18263.9
2820.75	18285.6
2810.62	18227.1
2800.47	18249.9
2790.31	18363.8
2780.13	18399
2769.92	18263.3
2759.71	18138.1
2749.47	18018.6
2739.21	17930.2
2728.94	18002.5
2718.65	17754.7
2708.34	17614.1
2698.01	17413.5
2687.66	17256.4
2677.3	17164.4
2666.91	17034.6
2656.51	16849.4
2646.09	16723.9
2635.65	16544.5
2625.19	16336.5
2614.72	16219.6
2604.22	15904.3
2593.71	15676.1
2583.18	15702.9
2572.63	15593.9
2562.06	15269.3
2551.47	15020.5
2540.86	14608.5
2530.24	14284.8
2519.59	14030.5
2508.93	13770.6
2498.25	13485.8
2487.55	13052.1
2476.83	12674.9
2466.09	12467.1
2455.34	12383.4
2444.56	12164.6
2433.77	11941.3
2422.95	11917.3
2412.12	11835.4
2401.27	11557
2390.4	11362.3
2379.51	11178.4
2368.6	10868.3
2357.67	10640.5
2346.72	10531.4
2335.75	10360.8
2324.77	10141
2313.76	9916.42
2302.74	9729.42
2291.69	9569
2280.63	9306.95
2269.55	9098.16
2258.44	8910.16
2247.32	8663.21
2236.18	8423.89
2225.02	8316.42
2213.84	8109.63
2202.64	7949.63
2191.42	7914.32
2180.18	7750.63
2168.92	7497.37
2157.65	7321.84
2146.35	7066.26
2135.03	6916.05
2123.69	6755
2112.33	6696.9
2100.96	6574.84
2089.56	6512.68
2078.14	6355.21
2066.7	6214.26
2055.25	6071.58
2043.77	5918.21
2032.27	5780.95
2020.76	5707.84
2009.22	5548.47
1997.66	5422.9
1986.09	5278.47
1974.49	5164.26
1962.87	5045.26
1951.23	4971
1939.57	4801.53
1927.89	4728.37
1916.2	4572.32
1904.48	4480.63
1892.74	4319.63
1880.98	4212.37
1869.2	4163.16
1857.4	4078.37
1845.57	3974.79
1833.73	3860.63
1821.87	3812.68
1809.99	3705.68
1798.08	3655.53
1786.16	3628.11
1774.21	3603.89
1762.25	3579.37
1750.26	3456.05
1738.25	3425.53
1726.22	3319.42
1714.18	3267.16
1702.11	3226.26
1690.01	3176.32
1677.9	3176.84
1665.77	3129.79
1653.61	3142.32
1641.44	3091.74
1629.24	3126.42
1617.03	3159.42
1604.79	3177
1592.53	3102.37
1580.25	3044.79
1567.94	3000.42
1555.62	2967.37
1543.28	2916.84
1530.91	2902.05
1518.52	2909.74
1506.11	2859.84
1493.68	2852.79
1481.23	2829.47
1468.76	2765.53
1456.26	2711.95
1443.75	2709.26
1431.21	2682.42
1418.65	2707.47
1406.07	2690.11
1393.46	2654.16
1380.84	2667.84
1368.19	2679.84
1355.52	2689.26
1342.83	2716.84
1330.12	2721.26
1317.39	2698.1
1304.63	2665.84
1291.85	2619.16
1279.05	2539.47
1266.23	2513.53
1253.38	2482.1
1240.52	2433.58
1227.63	2362.58
1214.72	2330.42
1201.78	2271.79
1188.83	2247.16
1175.85	2225.63
1162.85	2187
1149.83	2190.21
1136.78	2117.32
1123.71	2052
1110.62	2038.58
1097.51	1983.68
1084.38	2007.47
1071.22	1989.37
1058.04	1963.26
1044.83	1995.63
1031.61	1949.21
1018.36	1931.95
1005.09	1957.58
991.793	2020.42
978.477	2121.68
965.136	2112.26
951.773	2080.68
938.387	2098.63
924.978	2043.05
911.545	2056.26
898.09	2082.84
884.612	2125.74
871.11	2154.63
857.585	2157
844.037	2158.89
830.466	2144.47
816.871	2121.32
803.253	2104
789.611	2110.21
775.946	2100.95
762.258	2106.89
748.546	2088.53
734.81	2150.53
721.051	2152.84
707.268	2121.63
693.462	2105.58
679.632	2093.58
665.778	2087.79
651.9	2095.84
637.999	2118.89
624.073	2118.74
610.124	2080.95
596.151	2086.9
582.153	2081.05
568.132	2101.05
554.086	2086.9
540.017	2097
525.923	2599.53
511.805	2267.11
497.663	2146.63
483.497	2126.95
469.306	2127
455.091	2143.32
440.851	2137.42
426.587	2200.42
412.298	2215.63
397.986	2251.53
383.648	2282.58
369.286	2281.37
354.898	2243.37
340.487	2267.79
326.05	2291.26
311.59	2328.47
297.104	2285.63
282.593	2249
268.058	2283.63
253.497	2362.63
238.911	2366.74
224.3	2339.74
209.664	2223.74
195.003	2144.9
180.317	2071.68
165.606	2163.42
150.87	2172.21
136.108	2203.37
121.321	2329.37
106.508	2363.1
91.6705	2286.84
85.3029	1741.74