File: RAMAN/Raman_Ilum/HCS_MoS2_NF_Sodio.txt
3495.35	2277.68
3486.44	3144.84
3477.51	3489.05
3468.57	3870.47
3459.61	4460
3450.63	5030
3441.64	5495
3432.63	5865.95
3423.6	6195.32
3414.56	6482.53
3405.5	6912.53
3396.42	7381.42
3387.33	7766.26
3378.22	8059.1
3369.1	8303.74
3359.96	8565.63
3350.8	8955.89
3341.62	9393.95
3332.43	9807.26
3323.22	10104
3314	10290.1
3304.75	10518.8
3295.5	11221.3
3286.22	12941.7
3276.93	16004.3
3267.62	20052.3
3258.29	23822.5
3248.95	26192.2
3239.59	27508.3
3230.21	28256.4
3220.82	28838.7
3211.41	29603.6
3201.98	30792.5
3192.53	32278.9
3183.07	33633.5
3173.59	34944.1
3164.1	36350.6
3154.58	37905.5
3145.05	39470.8
3135.5	40589.5
3125.94	41470.1
3116.36	42229.8
3106.76	42952
3097.14	43622.8
3087.5	44374.1
3077.85	45394.1
3068.18	45986.5
3058.5	46007
3048.8	46266.5
3039.07	46771.2
3029.34	47631.3
3019.58	48675.5
3009.81	49965.7
3000.01	51158
2990.21	52236.2
2980.38	52879.6
2970.54	53456
2960.67	54203.1
2950.8	54592.9
2940.9	54921.4
2930.98	55342.7
2921.05	55705.7
2911.1	56107.7
2901.13	56822.8
2891.15	57147.9
2881.15	57537.6
2871.12	57875.3
2861.09	57539.9
2851.03	57307.7
2840.95	56798.4
2830.86	56603.4
2820.75	56507.5
2810.62	56486.8
2800.47	56573.5
2790.31	56922.4
2780.13	57176.5
2769.92	56877.7
2759.71	56320.7
2749.47	55783.3
2739.21	55567.6
2728.94	55392.9
2718.65	54437.8
2708.34	54041.5
2698.01	53447.4
2687.66	53108.2
2677.3	52679.9
2666.91	52082.4
2656.51	51816.9
2646.09	51342.5
2635.65	50756.8
2625.19	50029.1
2614.72	49484.1
2604.22	48430.6
2593.71	47903.2
2583.18	47848.6
2572.63	47546.6
2562.06	46506.7
2551.47	45555.1
2540.86	44658.1
2530.24	43537.7
2519.59	42674.2
2508.93	41958.3
2498.25	40935.9
2487.55	39780.9
2476.83	38459.7
2466.09	37642.3
2455.34	37409.7
2444.56	36756.9
2433.77	36283.6
2422.95	36278.5
2412.12	35704.5
2401.27	34831.3
2390.4	34158.5
2379.51	33564.3
2368.6	32720.9
2357.67	32087.1
2346.72	31504.2
2335.75	31106.4
2324.77	30424
2313.76	29817.1
2302.74	29184.1
2291.69	28732.1
2280.63	27859.5
2269.55	27197.5
2258.44	26692.8
2247.32	25843.2
2236.18	25178.2
2225.02	24719.8
2213.84	24118.9
2202.64	23656.6
2191.42	23360.4
2180.18	22946.4
2168.92	22186.9
2157.65	21650.2
2146.35	21050.2
2135.03	20451.5
2123.69	20017.9
2112.33	19723.2
2100.96	19459.6
2089.56	19208.3
2078.14	18770.7
2066.7	18403.4
2055.25	17864.7
2043.77	17410.6
2032.27	17114.1
2020.76	16854.4
2009.22	16371.9
1997.66	15905.7
1986.09	15411.8
1974.49	15075.8
1962.87	14857.8
1951.23	14495.6
1939.57	14033.1
1927.89	13838.5
1916.2	13344.6
1904.48	13028.8
1892.74	12681.1
1880.98	12396
1869.2	12157.5
1857.4	11853.3
1845.57	11675.2
1833.73	11388.8
1821.87	11218.6
1809.99	10899.5
1798.08	10713.8
1786.16	10600.3
1774.21	10521.5
1762.25	10408
1750.26	10138.2
1738.25	9917.68
1726.22	9710.95
1714.18	9495.47
1702.11	9382.05
1690.01	9270.53
1677.9	9276.95
1665.77	9151.74
1653.61	9165.32
1641.44	9032.05
1629.24	9167.16
1617.03	9253.11
1604.79	9299.58
1592.53	9152.21
1580.25	8994.79
1567.94	8860.79
1555.62	8697.05
1543.28	8537.68
1530.91	8540.37
1518.52	8593.21
1506.11	8529.53
1493.68	8405.63
1481.23	8239.11
1468.76	8096.79
1456.26	7980.11
1443.75	7996.53
1431.21	7941.42
1418.65	7930.16
1406.07	7899.79
1393.46	7743.26
1380.84	7782.53
1368.19	7775.32
1355.52	7822.95
1342.83	7929.63
1330.12	7912.05
1317.39	7873.9
1304.63	7710.21
1291.85	7627.11
1279.05	7427.21
1266.23	7286.05
1253.38	7232.68
1240.52	7142.58
1227.63	6977.42
1214.72	6832.89
1201.78	6637.79
1188.83	6557.58
1175.85	6508.63
1162.85	6443.11
1149.83	6319.21
1136.78	6208.95
1123.71	6019
1110.62	5889.32
1097.51	5785.05
1084.38	5750.79
1071.22	5698.05
1058.04	5612.95
1044.83	5591.84
1031.61	5614.1
1018.36	5531.1
1005.09	5471.95
991.793	5557.63
978.477	5561.63
965.136	5579
951.773	5538.58
938.387	5593.63
924.978	5458.32
911.545	5461.53
898.09	5540.84
884.612	5539.47
871.11	5470.26
857.585	5485.58
844.037	5452.11
830.466	5366.63
816.871	5305.74
803.253	5324.53
789.611	5323.89
775.946	5401.26
762.258	5307.26
748.546	5341.26
734.81	5379.37
721.051	5348.68
707.268	5320.74
693.462	5318.16
679.632	5306.37
665.778	5302.68
651.9	5368.21
637.999	5393.32
624.073	5378.89
610.124	5304.16
596.151	5378.42
582.153	5398.05
568.132	5436.21
554.086	5423
540.017	5523.63
525.923	6929.74
511.805	5876.63
497.663	5429.79
483.497	5351.16
469.306	5420.84
455.091	5388.84
440.851	5290.9
426.587	5422.58
412.298	5407.63
397.986	5449.95
383.648	5443.63
369.286	5407.53
354.898	5324.79
340.487	5345.32
326.05	5385.16
311.59	5485.74
297.104	5426.05
282.593	5257.84
268.058	5219.53
253.497	5296.1
238.911	5265.58
224.3	5169.26
209.664	4963.42
195.003	4853.32
180.317	4830.68
165.606	5010.79
150.87	5039.79
136.108	5051.74
121.321	5249.84
106.508	5263.74
91.6705	4841.79
85.3029	3638.05