File: RAMAN/Raman_Ilum/HCS_MoS2_NS_Sodio.txt
3495.35	2350.42
3486.44	3253.21
3477.51	3597.68
3468.57	4029.95
3459.61	4617.58
3450.63	5219.05
3441.64	5688.47
3432.63	6071.89
3423.6	6410
3414.56	6736.37
3405.5	7187.42
3396.42	7662.16
3387.33	8049
3378.22	8344.47
3369.1	8627.16
3359.96	8881.37
3350.8	9276.58
3341.62	9738.9
3332.43	10192
3323.22	10453.4
3314	10611.5
3304.75	10837.2
3295.5	11576.1
3286.22	13389.3
3276.93	16584.3
3267.62	20734.9
3258.29	24645.1
3248.95	27009.1
3239.59	28204.3
3230.21	28971.3
3220.82	29596.5
3211.41	30375.9
3201.98	31579.7
3192.53	33033.4
3183.07	34367.4
3173.59	35709.4
3164.1	37097.8
3154.58	38707.2
3145.05	40239.9
3135.5	41360.4
3125.94	42153.5
3116.36	42951.7
3106.76	43688.3
3097.14	44330.1
3087.5	45089.7
3077.85	46255.2
3068.18	46788.3
3058.5	46756.9
3048.8	46911.9
3039.07	47481.6
3029.34	48345.3
3019.58	49460.6
3009.81	50705.7
3000.01	51898.4
2990.21	52962.2
2980.38	53648.7
2970.54	54302.1
2960.67	54956.7
2950.8	55437.1
2940.9	55732.3
2930.98	56187.6
2921.05	56620.7
2911.1	57074.1
2901.13	57669.9
2891.15	57923.6
2881.15	58384.3
2871.12	58599.8
2861.09	58339.1
2851.03	58205.9
2840.95	57711.5
2830.86	57448.5
2820.75	57454.7
2810.62	57424.4
2800.47	57554.5
2790.31	57941.1
2780.13	58028.1
2769.92	57697.7
2759.71	57267.8
2749.47	56792.2
2739.21	56625.3
2728.94	56576.9
2718.65	55699.7
2708.34	55072.5
2698.01	54592.7
2687.66	54297.7
2677.3	53823.3
2666.91	53292.6
2656.51	52948.5
2646.09	52471.4
2635.65	51897.5
2625.19	51194.3
2614.72	50532.2
2604.22	49598.6
2593.71	49179.3
2583.18	48998.8
2572.63	48632.8
2562.06	47598.3
2551.47	46844.1
2540.86	45765.8
2530.24	44663.4
2519.59	43779.1
2508.93	43033.6
2498.25	41916.4
2487.55	40615.8
2476.83	39255.1
2466.09	38674.8
2455.34	38311.4
2444.56	37650
2433.77	37180.9
2422.95	36940.1
2412.12	36450.2
2401.27	35565.4
2390.4	34906.2
2379.51	34286.4
2368.6	33371.7
2357.67	32565.3
2346.72	32018.5
2335.75	31640
2324.77	30915.8
2313.76	30199.7
2302.74	29580.7
2291.69	29085.7
2280.63	28216.8
2269.55	27449.5
2258.44	26892.4
2247.32	26008.9
2236.18	25192.7
2225.02	24853.7
2213.84	24251.5
2202.64	23681.8
2191.42	23441.6
2180.18	22821.6
2168.92	22031.9
2157.65	21470.7
2146.35	20739.3
2135.03	20146.3
2123.69	19557.4
2112.33	19306.4
2100.96	19054.7
2089.56	18718.7
2078.14	18215
2066.7	17757.2
2055.25	17210.8
2043.77	16749.4
2032.27	16308.9
2020.76	16002.4
2009.22	15552
1997.66	15083.1
1986.09	14521.1
1974.49	14159.3
1962.87	13797.6
1951.23	13418.2
1939.57	12936.5
1927.89	12612.8
1916.2	12135.4
1904.48	11734.8
1892.74	11310.6
1880.98	10980.1
1869.2	10700.3
1857.4	10435.2
1845.57	10088.6
1833.73	9829.16
1821.87	9560.47
1809.99	9216.47
1798.08	8999.68
1786.16	8809.74
1774.21	8678.89
1762.25	8486.05
1750.26	8221.58
1738.25	7976.79
1726.22	7676.74
1714.18	7422.16
1702.11	7251.05
1690.01	7017.95
1677.9	6931.53
1665.77	6764.05
1653.61	6621.16
1641.44	6422.16
1629.24	6383
1617.03	6308
1604.79	6212.16
1592.53	6004.74
1580.25	5786.21
1567.94	5604
1555.62	5424.05
1543.28	5253.63
1530.91	5170.47
1518.52	5129
1506.11	4995.74
1493.68	4898.42
1481.23	4749.37
1468.76	4573.37
1456.26	4461.84
1443.75	4360.32
1431.21	4283.05
1418.65	4223.42
1406.07	4145.1
1393.46	4035.53
1380.84	3967.79
1368.19	3918.84
1355.52	3888.05
1342.83	3873.47
1330.12	3841.42
1317.39	3719.58
1304.63	3610.21
1291.85	3517.32
1279.05	3387.42
1266.23	3283.89
1253.38	3212.16
1240.52	3121.84
1227.63	3004.05
1214.72	2916.21
1201.78	2809.16
1188.83	2753.63
1175.85	2677
1162.85	2599.32
1149.83	2551.11
1136.78	2425.74
1123.71	2341.84
1110.62	2257
1097.51	2178.37
1084.38	2172.53
1071.22	2113
1058.04	2059.74
1044.83	2059.89
1031.61	2007.84
1018.36	1983
1005.09	1975.89
991.793	2033.63
978.477	2091.16
965.136	2067.89
951.773	2024.37
938.387	2054.42
924.978	1977.16
911.545	1939.32
898.09	1937.37
884.612	1956.05
871.11	1962.11
857.585	1938.63
844.037	1925.32
830.466	1908.37
816.871	1859
803.253	1859.63
789.611	1844.11
775.946	1839.47
762.258	1825.79
748.546	1793.74
734.81	1841.84
721.051	1813.95
707.268	1809.26
693.462	1811.16
679.632	1768.16
665.778	1768.89
651.9	1748.95
637.999	1785.53
624.073	1754.16
610.124	1737.84
596.151	1739.05
582.153	1741.89
568.132	1754.89
554.086	1748.26
540.017	1809.26
525.923	2740.47
511.805	2163.42
497.663	1790.79
483.497	1767.37
469.306	1789.79
455.091	1841.68
440.851	1860.63
426.587	1932.84
412.298	1968.32
397.986	2010.21
383.648	2005.21
369.286	2037.79
354.898	2030.05
340.487	2067.68
326.05	2081.79
311.59	2151.84
297.104	2140.37
282.593	2047.26
268.058	2067.32
253.497	2138.63
238.911	2167.84
224.3	2179.42
209.664	2141.74
195.003	2055.47
180.317	2010.74
165.606	2064.58
150.87	2074.58
136.108	2106.58
121.321	2245.11
106.508	2276.68
91.6705	2230.32
85.3029	1722.63