File: RAMAN/Raman_Ilum/MoS2_NS_Sodio.txt
3495.35	98.9474
3486.44	129.368
3477.51	148.421
3468.57	140.053
3459.61	190.053
3450.63	193.316
3441.64	210.895
3432.63	243
3423.6	268.632
3414.56	258.368
3405.5	286.579
3396.42	288.053
3387.33	329.21
3378.22	312.474
3369.1	312.632
3359.96	332.421
3350.8	373.895
3341.62	385.316
3332.43	383.789
3323.22	394.684
3314	424.211
3304.75	408.632
3295.5	444.632
3286.22	493.789
3276.93	625.053
3267.62	784.263
3258.29	913.737
3248.95	1018.63
3239.59	1085.63
3230.21	1091.79
3220.82	1131.05
3211.41	1158.89
3201.98	1184.11
3192.53	1258.16
3183.07	1303.05
3173.59	1365.47
3164.1	1428.89
3154.58	1495.58
3145.05	1520.89
3135.5	1576.21
3125.94	1616.05
3116.36	1631.84
3106.76	1669.47
3097.14	1677.53
3087.5	1708.58
3077.85	1747.26
3068.18	1781.16
3058.5	1779.32
3048.8	1795.79
3039.07	1798.53
3029.34	1826.42
3019.58	1846.37
3009.81	1914.95
3000.01	1956.26
2990.21	1979.53
2980.38	1996.68
2970.54	2026.42
2960.67	2091.79
2950.8	2085.79
2940.9	2098.21
2930.98	2082.32
2921.05	2111.68
2911.1	2105.37
2901.13	2135.63
2891.15	2156.16
2881.15	2150.63
2871.12	2166.37
2861.09	2154.32
2851.03	2141.11
2840.95	2133.89
2830.86	2129
2820.75	2111.84
2810.62	2110.47
2800.47	2137.89
2790.31	2115.16
2780.13	2129.63
2769.92	2112.11
2759.71	2107.53
2749.47	2093.26
2739.21	2086.21
2728.94	2062.68
2718.65	2045.32
2708.34	2044.47
2698.01	2003
2687.66	1947.84
2677.3	1969.32
2666.91	1968.11
2656.51	1926.95
2646.09	1910.84
2635.65	1886
2625.19	1861.79
2614.72	1847.53
2604.22	1817.68
2593.71	1784.32
2583.18	1803.79
2572.63	1788.58
2562.06	1740.05
2551.47	1730.05
2540.86	1663
2530.24	1627.37
2519.59	1599.95
2508.93	1572.84
2498.25	1549.89
2487.55	1475.63
2476.83	1453
2466.09	1452.58
2455.34	1432.11
2444.56	1408
2433.77	1358.11
2422.95	1365.16
2412.12	1362.53
2401.27	1318.63
2390.4	1291.89
2379.51	1302.95
2368.6	1265.47
2357.67	1241.58
2346.72	1221.84
2335.75	1184.63
2324.77	1210.58
2313.76	1168.26
2302.74	1141.89
2291.69	1126.89
2280.63	1105.26
2269.55	1077.11
2258.44	1053.47
2247.32	1022.84
2236.18	1010.05
2225.02	998.316
2213.84	982.842
2202.64	957.263
2191.42	968.368
2180.18	958.789
2168.92	925.316
2157.65	904.368
2146.35	862.737
2135.03	864.105
2123.69	824.895
2112.33	838.737
2100.96	823.579
2089.56	831.474
2078.14	807.474
2066.7	809.263
2055.25	801.421
2043.77	764
2032.27	732.947
2020.76	755.211
2009.22	737.263
1997.66	739.632
1986.09	722.947
1974.49	686.684
1962.87	681.421
1951.23	701.526
1939.57	676.789
1927.89	657
1916.2	659
1904.48	647.842
1892.74	625.316
1880.98	606.789
1869.2	612.737
1857.4	593.105
1845.57	591.789
1833.73	580.789
1821.87	582.368
1809.99	569.368
1798.08	579.895
1786.16	558.053
1774.21	570.316
1762.25	582.368
1750.26	545.421
1738.25	577
1726.22	553.789
1714.18	545.579
1702.11	542.579
1690.01	537.895
1677.9	552.158
1665.77	542.737
1653.61	554.158
1641.44	527.263
1629.24	530.158
1617.03	544.737
1604.79	550.211
1592.53	510.053
1580.25	501.158
1567.94	510.895
1555.62	525.947
1543.28	508.842
1530.91	511.263
1518.52	540.842
1506.11	522.737
1493.68	511.368
1481.23	536.105
1468.76	504.632
1456.26	501.579
1443.75	506.263
1431.21	502.632
1418.65	529.895
1406.07	514.421
1393.46	509.684
1380.84	496.421
1368.19	523.053
1355.52	508.053
1342.83	528.947
1330.12	530.316
1317.39	511.632
1304.63	522.632
1291.85	514.316
1279.05	495.158
1266.23	524.684
1253.38	523.684
1240.52	511
1227.63	526.526
1214.72	516.579
1201.78	524.895
1188.83	527
1175.85	534.053
1162.85	529.211
1149.83	547.895
1136.78	538.789
1123.71	532.263
1110.62	559.053
1097.51	529.789
1084.38	566.105
1071.22	563.895
1058.04	543.895
1044.83	592.368
1031.61	565.737
1018.36	609.789
1005.09	652.211
991.793	1322.79
978.477	744.263
965.136	700
951.773	677.316
938.387	729.895
924.978	728.263
911.545	755.211
898.09	791.526
884.612	839.895
871.11	860.842
857.585	947.105
844.037	1100.53
830.466	1661.95
816.871	2552.32
803.253	1481.32
789.611	1163
775.946	1083.47
762.258	993.158
748.546	972.632
734.81	1034.42
721.051	1028.89
707.268	979.579
693.462	947.105
679.632	964.684
665.778	1112.26
651.9	1018.32
637.999	940.053
624.073	907.263
610.124	876.737
596.151	891.21
582.153	882.526
568.132	894.158
554.086	859.211
540.017	886.947
525.923	1051
511.805	919.421
497.663	918.368
483.497	933.053
469.306	977.789
455.091	1009.42
440.851	982.421
426.587	1060.84
412.298	1146.63
397.986	1134.47
383.648	1266.32
369.286	1334.74
354.898	1244.21
340.487	1405.53
326.05	1338.21
311.59	1388.63
297.104	1573.74
282.593	2362.68
268.058	1570.21
253.497	1404.42
238.911	1499.26
224.3	1373.42
209.664	1321.37
195.003	1356.16
180.317	1168.47
165.606	1273.05
150.87	1961.68
136.108	1522
121.321	2082.95
106.508	1759.58
91.6705	1637.47
85.3029	1279.26