File: FTIR/ILUM_29-10-2024/HCS_MoS2_1.txt
##TITLE=No Description
##DATA TYPE=INFRARED SPECTRUM
##XUNITS=1/CM
##YUNITS=%T
399.452  	82.013
412.384  	86.384
425.316  	86.4119
438.248  	86.5941
451.18  	86.7701
464.112  	86.792
477.043  	87.1809
489.975  	86.8049
502.907  	86.444
515.839  	86.6467
528.771  	86.4755
541.703  	86.8523
554.635  	86.6608
567.567  	87.1439
580.499  	87.0088
593.431  	87.3052
606.362  	87.2448
619.294  	87.5751
632.226  	87.7243
645.158  	87.9091
658.09  	88.1775
671.022  	88.3604
683.954  	88.6694
696.886  	89.0194
709.818  	89.3093
722.75  	89.4111
735.681  	89.5395
748.613  	89.7515
761.545  	89.7918
774.477  	89.9971
787.409  	90.2926
800.341  	90.36
813.273  	90.5282
826.205  	90.8198
839.137  	91.3004
852.069  	91.7324
865.001  	92.192
877.932  	92.655
890.864  	93.0962
903.796  	93.6937
916.728  	94.028
929.66  	94.3082
942.592  	94.4912
955.524  	94.6097
968.456  	94.6253
981.388  	94.5474
994.32  	94.4038
1007.25  	94.1562
1020.18  	93.7732
1033.12  	93.3767
1046.05  	92.9613
1058.98  	92.6711
1071.91  	92.5264
1084.84  	92.424
1097.77  	92.1767
1110.71  	91.8221
1123.64  	91.2876
1136.57  	90.7578
1149.5  	90.136
1162.43  	89.4532
1175.37  	88.9901
1188.3  	88.535
1201.23  	88.0758
1214.16  	87.6413
1227.09  	87.2768
1240.03  	86.9842
1252.96  	86.8355
1265.89  	86.7429
1278.82  	86.6834
1291.75  	86.6983
1304.69  	86.821
1317.62  	86.8865
1330.55  	87.016
1343.48  	87.042
1356.41  	87.0979
1369.34  	87.2036
1382.28  	87.464
1395.21  	87.8328
1408.14  	88.1247
1421.07  	88.2248
1434  	88.2135
1446.94  	88.2915
1459.87  	88.4256
1472.8  	88.5977
1485.73  	88.6424
1498.66  	88.5308
1511.6  	88.3415
1524.53  	88.1879
1537.46  	87.8758
1550.39  	87.1177
1563.32  	86.4099
1576.26  	85.8916
1589.19  	85.3907
1602.12  	85.3334
1615.05  	85.713
1627.98  	86.6168
1640.91  	87.9475
1653.85  	89.8116
1666.78  	91.1756
1679.71  	92.4172
1692.64  	93.3287
1705.57  	94.2581
1718.51  	95.1741
1731.44  	96.2098
1744.37  	96.8949
1757.3  	97.4132
1770.23  	97.8121
1783.17  	98.124
1796.1  	98.2527
1809.03  	98.4518
1821.96  	98.4796
1834.89  	98.5276
1847.83  	98.5266
1860.76  	98.4983
1873.69  	98.6222
1886.62  	98.6487
1899.55  	98.5486
1912.48  	98.5294
1925.42  	98.5512
1938.35  	98.3318
1951.28  	98.6062
1964.21  	98.77
1977.14  	98.7626
1990.08  	98.7652
2003.01  	98.2332
2015.94  	98.0952
2028.87  	98.268
2041.8  	97.9126
2054.74  	98.3472
2067.67  	98.4363
2080.6  	98.3683
2093.53  	98.4575
2106.46  	98.2396
2119.39  	98.4074
2132.33  	98.0498
2145.26  	98.0821
2158.19  	98.0691
2171.12  	98.2683
2184.05  	98.2505
2196.99  	98.1034
2209.92  	98.1187
2222.85  	97.9385
2235.78  	97.9378
2248.71  	98.3014
2261.65  	98.1281
2274.58  	98.3103
2287.51  	98.4382
2300.44  	98.0951
2313.37  	97.9436
2326.31  	98.1223
2339.24  	98.1014
2352.17  	98.0914
2365.1  	98.2032
2378.03  	98.2645
2390.96  	98.2995
2403.9  	98.1319
2416.83  	98.0526
2429.76  	98.1235
2442.69  	98.0785
2455.62  	98.0962
2468.56  	98.0654
2481.49  	97.9324
2494.42  	97.9196
2507.35  	97.9566
2520.28  	97.8926
2533.22  	97.8131
2546.15  	97.72
2559.08  	97.5701
2572.01  	97.6246
2584.94  	97.5183
2597.88  	97.5902
2610.81  	97.5405
2623.74  	97.5855
2636.67  	97.6113
2649.6  	97.627
2662.53  	97.5619
2675.47  	97.5086
2688.4  	97.5012
2701.33  	97.4842
2714.26  	97.4303
2727.19  	97.4327
2740.13  	97.386
2753.06  	97.3582
2765.99  	97.3425
2778.92  	97.342
2791.85  	97.2755
2804.79  	97.2288
2817.72  	97.1621
2830.65  	97.2056
2843.58  	97.1604
2856.51  	97.2653
2869.45  	97.1283
2882.38  	97.0632
2895.31  	97.0162
2908.24  	96.9625
2921.17  	97.1135
2934.1  	96.8944
2947.04  	96.7262
2959.97  	96.7791
2972.9  	96.6986
2985.83  	96.6514
2998.76  	96.5141
3011.7  	96.4681
3024.63  	96.3015
3037.56  	96.1919
3050.49  	96.0906
3063.42  	96.0193
3076.36  	95.8825
3089.29  	95.7357
3102.22  	95.6758
3115.15  	95.5548
3128.08  	95.4968
3141.02  	95.539
3153.95  	95.3938
3166.88  	95.3084
3179.81  	95.0849
3192.74  	95.0302
3205.67  	94.9735
3218.61  	94.994
3231.54  	94.8609
3244.47  	94.8732
3257.4  	94.7169
3270.33  	94.7718
3283.27  	94.6898
3296.2  	94.7565
3309.13  	94.5788
3322.06  	94.6529
3334.99  	94.6634
3347.93  	94.5129
3360.86  	94.5699
3373.79  	94.5552
3386.72  	94.6275
3399.65  	94.7032
3412.59  	94.6632
3425.52  	94.6525
3438.45  	94.9403
3451.38  	95.1139
3464.31  	95.1311
3477.24  	95.3318
3490.18  	95.4298
3503.11  	95.4128
3516.04  	95.7635
3528.97  	95.6537
3541.9  	96.1234
3554.84  	96.0322
3567.77  	95.966
3580.7  	96.5083
3593.63  	96.6831
3606.56  	96.5507
3619.5  	96.5557
3632.43  	96.8881
3645.36  	97.1448
3658.29  	97.4355
3671.22  	98.0252
3684.15  	98.0768
3697.09  	98.1175
3710.02  	98.1323
3722.95  	97.9022
3735.88  	97.8065
3748.81  	98.2113
3761.75  	98.3187
3774.68  	98.1596
3787.61  	97.9693
3800.54  	98.2443
3813.47  	98.0712
3826.41  	98.0901
3839.34  	97.8651
3852.27  	98.5186
3865.2  	98.421
3878.13  	98.1233
3891.07  	97.9931
3904  	97.9166
3916.93  	98.0097
3929.86  	98.0219
3942.79  	97.9659
3955.72  	98.0485
3968.66  	98.0145
3981.59  	97.9113
3994.52  	97.9394
4000.27  	97.9626