File: FTIR/ILUM_29-10-2024/MoS2_NS_Amonia_1.txt
##TITLE=No Description
##DATA TYPE=INFRARED SPECTRUM
##XUNITS=1/CM
##YUNITS=%T
399.452  	24.537
412.384  	24.9265
425.316  	25.6425
438.248  	25.2069
451.18  	25.916
464.112  	25.9161
477.043  	26.4413
489.975  	26.9663
502.907  	26.4995
515.839  	26.1047
528.771  	25.3636
541.703  	24.7371
554.635  	24.0451
567.567  	23.4937
580.499  	23.4205
593.431  	23.6252
606.362  	24.0155
619.294  	24.5854
632.226  	24.709
645.158  	25.0395
658.09  	25.092
671.022  	25.7409
683.954  	25.5146
696.886  	25.3786
709.818  	25.5858
722.75  	26.1256
735.681  	26.6586
748.613  	27.0464
761.545  	27.5842
774.477  	28.9236
787.409  	30.4657
800.341  	31.9816
813.273  	33.1515
826.205  	33.3604
839.137  	32.5945
852.069  	31.8778
865.001  	31.4383
877.932  	30.8215
890.864  	28.9697
903.796  	27.6323
916.728  	29.245
929.66  	29.7547
942.592  	29.9421
955.524  	33.6668
968.456  	37.5931
981.388  	39.8703
994.32  	39.7798
1007.25  	37.8148
1020.18  	34.4237
1033.12  	33.7699
1046.05  	36.0816
1058.98  	37.4559
1071.91  	37.2867
1084.84  	35.7914
1097.77  	33.6602
1110.71  	32.5615
1123.64  	33.2138
1136.57  	34.6727
1149.5  	34.9263
1162.43  	34.6666
1175.37  	34.6474
1188.3  	35.5487
1201.23  	37.083
1214.16  	38.7703
1227.09  	39.9735
1240.03  	40.9226
1252.96  	41.7706
1265.89  	42.1076
1278.82  	41.8891
1291.75  	41.27
1304.69  	40.5122
1317.62  	40.0391
1330.55  	39.9401
1343.48  	39.4546
1356.41  	38.7587
1369.34  	37.6298
1382.28  	36.6126
1395.21  	35.4797
1408.14  	34.1449
1421.07  	34.223
1434  	34.937
1446.94  	36.9513
1459.87  	39.3009
1472.8  	40.2641
1485.73  	40.3707
1498.66  	40.4153
1511.6  	39.9063
1524.53  	39.2372
1537.46  	37.9639
1550.39  	37.6896
1563.32  	36.4573
1576.26  	35.3211
1589.19  	34.7435
1602.12  	34.5099
1615.05  	34.6143
1627.98  	36.1534
1640.91  	37.3142
1653.85  	39.0691
1666.78  	38.8362
1679.71  	39.9038
1692.64  	40.5025
1705.57  	40.901
1718.51  	41.6744
1731.44  	41.5788
1744.37  	41.6174
1757.3  	41.4317
1770.23  	40.8835
1783.17  	40.9127
1796.1  	40.682
1809.03  	40.3568
1821.96  	40.2871
1834.89  	40.0579
1847.83  	40.0079
1860.76  	39.8382
1873.69  	39.7811
1886.62  	39.6056
1899.55  	39.6686
1912.48  	39.4668
1925.42  	39.6141
1938.35  	39.5727
1951.28  	39.6841
1964.21  	40.3337
1977.14  	40.732
1990.08  	39.9683
2003.01  	40.1345
2015.94  	40.6295
2028.87  	41.36
2041.8  	40.1282
2054.74  	39.4946
2067.67  	39.0026
2080.6  	38.7713
2093.53  	38.5054
2106.46  	38.3457
2119.39  	38.0951
2132.33  	38.3354
2145.26  	38.7789
2158.19  	40.0622
2171.12  	39.3235
2184.05  	39.3457
2196.99  	38.6272
2209.92  	38.3948
2222.85  	38.2167
2235.78  	37.9574
2248.71  	37.5617
2261.65  	37.3846
2274.58  	37.0987
2287.51  	36.8834
2300.44  	36.5612
2313.37  	36.3351
2326.31  	36.1909
2339.24  	36.0623
2352.17  	35.8406
2365.1  	36.0295
2378.03  	36.1186
2390.96  	35.9702
2403.9  	35.9627
2416.83  	35.8196
2429.76  	35.7099
2442.69  	35.685
2455.62  	35.5972
2468.56  	35.4713
2481.49  	35.5189
2494.42  	35.3713
2507.35  	35.2306
2520.28  	35.2097
2533.22  	35.1206
2546.15  	35.0607
2559.08  	34.935
2572.01  	34.8777
2584.94  	34.8524
2597.88  	34.7415
2610.81  	34.6906
2623.74  	34.5597
2636.67  	34.4405
2649.6  	34.2991
2662.53  	34.1426
2675.47  	34.0297
2688.4  	33.8634
2701.33  	33.7262
2714.26  	33.6195
2727.19  	33.514
2740.13  	33.4094
2753.06  	33.2795
2765.99  	33.152
2778.92  	33.0319
2791.85  	32.9091
2804.79  	32.8159
2817.72  	32.7185
2830.65  	32.6022
2843.58  	32.548
2856.51  	32.5605
2869.45  	32.5033
2882.38  	32.4775
2895.31  	32.4549
2908.24  	32.3741
2921.17  	32.3314
2934.1  	32.3299
2947.04  	32.2699
2959.97  	32.1834
2972.9  	32.1907
2985.83  	32.1937
2998.76  	32.2783
3011.7  	32.225
3024.63  	32.1706
3037.56  	32.2101
3050.49  	32.2275
3063.42  	32.321
3076.36  	32.4316
3089.29  	32.5074
3102.22  	32.5757
3115.15  	32.5997
3128.08  	32.596
3141.02  	32.5322
3153.95  	32.5326
3166.88  	32.4556
3179.81  	32.5984
3192.74  	32.7094
3205.67  	32.8168
3218.61  	33.0506
3231.54  	33.3399
3244.47  	33.5798
3257.4  	33.916
3270.33  	34.0673
3283.27  	34.2989
3296.2  	34.4457
3309.13  	34.4157
3322.06  	34.4697
3334.99  	34.5164
3347.93  	34.5554
3360.86  	34.6048
3373.79  	34.5223
3386.72  	34.6101
3399.65  	34.7489
3412.59  	34.6869
3425.52  	34.8869
3438.45  	35.0866
3451.38  	35.1103
3464.31  	35.3357
3477.24  	35.5714
3490.18  	35.6088
3503.11  	35.6976
3516.04  	35.8513
3528.97  	36.1246
3541.9  	36.1145
3554.84  	36.3665
3567.77  	36.5254
3580.7  	36.7554
3593.63  	37.0071
3606.56  	37.0871
3619.5  	37.4514
3632.43  	38.049
3645.36  	37.5538
3658.29  	38.4024
3671.22  	38.1349
3684.15  	37.5849
3697.09  	37.5339
3710.02  	37.0169
3722.95  	37.1355
3735.88  	37.001
3748.81  	36.2421
3761.75  	37.1274
3774.68  	36.8457
3787.61  	36.8158
3800.54  	35.7724
3813.47  	36.2807
3826.41  	36.3435
3839.34  	36.4895
3852.27  	35.168
3865.2  	36.3174
3878.13  	36.1439
3891.07  	36.0658
3904  	36.1801
3916.93  	36.1411
3929.86  	36.132
3942.79  	36.1552
3955.72  	36.2214
3968.66  	36.0958
3981.59  	36.1026
3994.52  	36.096
4000.27  	36.088