File: FTIR/ILUM_29-10-2024/MoS2_NS_Sodio_1.txt
##TITLE=No Description
##DATA TYPE=INFRARED SPECTRUM
##XUNITS=1/CM
##YUNITS=%T
399.452  	30.8336
412.384  	31.5957
425.316  	31.8553
438.248  	32.4149
451.18  	32.4404
464.112  	33.3083
477.043  	33.4411
489.975  	34.3184
502.907  	34.0546
515.839  	34.0365
528.771  	34.1813
541.703  	34.3013
554.635  	34.3948
567.567  	34.4919
580.499  	35.0044
593.431  	35.429
606.362  	35.5721
619.294  	35.6099
632.226  	36.2471
645.158  	37.1152
658.09  	37.6051
671.022  	37.8955
683.954  	38.2588
696.886  	38.4516
709.818  	38.7673
722.75  	39.2513
735.681  	39.8097
748.613  	40.2958
761.545  	40.5478
774.477  	41.1121
787.409  	41.6893
800.341  	41.9044
813.273  	42.2821
826.205  	43.3115
839.137  	43.3981
852.069  	42.9663
865.001  	42.5234
877.932  	42.3554
890.864  	42.0104
903.796  	41.4059
916.728  	41.3887
929.66  	41.4545
942.592  	41.9156
955.524  	45.0475
968.456  	48.0197
981.388  	48.792
994.32  	48.1102
1007.25  	46.9044
1020.18  	44.8235
1033.12  	45.8123
1046.05  	45.1642
1058.98  	45.3711
1071.91  	44.4008
1084.84  	43.6374
1097.77  	43.2777
1110.71  	43.3517
1123.64  	43.8085
1136.57  	44.4621
1149.5  	44.3596
1162.43  	44.1265
1175.37  	43.9591
1188.3  	43.3432
1201.23  	42.9472
1214.16  	42.8639
1227.09  	42.8456
1240.03  	42.7358
1252.96  	42.9137
1265.89  	43.0183
1278.82  	42.902
1291.75  	42.5705
1304.69  	42.5756
1317.62  	42.5439
1330.55  	42.4483
1343.48  	42.3121
1356.41  	42.0589
1369.34  	41.7131
1382.28  	41.9795
1395.21  	42.1668
1408.14  	41.6724
1421.07  	41.5574
1434  	41.9067
1446.94  	42.2672
1459.87  	43.2888
1472.8  	43.8209
1485.73  	43.9433
1498.66  	43.5473
1511.6  	42.9335
1524.53  	42.2968
1537.46  	41.4518
1550.39  	40.5563
1563.32  	39.3922
1576.26  	38.5746
1589.19  	37.8466
1602.12  	37.2251
1615.05  	37.5386
1627.98  	39.005
1640.91  	40.6913
1653.85  	42.9329
1666.78  	44.4988
1679.71  	46.1101
1692.64  	47.1822
1705.57  	47.5514
1718.51  	47.9455
1731.44  	48.0643
1744.37  	47.9418
1757.3  	47.7627
1770.23  	47.5224
1783.17  	47.2708
1796.1  	46.9612
1809.03  	46.7791
1821.96  	46.6277
1834.89  	46.4479
1847.83  	46.3247
1860.76  	46.1541
1873.69  	46.0076
1886.62  	45.9824
1899.55  	45.9084
1912.48  	45.6466
1925.42  	45.6715
1938.35  	45.8028
1951.28  	45.8709
1964.21  	46.3996
1977.14  	46.7335
1990.08  	46.1407
2003.01  	46.1787
2015.94  	46.3655
2028.87  	46.4455
2041.8  	46.0847
2054.74  	45.2479
2067.67  	44.955
2080.6  	44.6675
2093.53  	44.6966
2106.46  	44.4122
2119.39  	44.2605
2132.33  	44.3945
2145.26  	45.0273
2158.19  	46.2128
2171.12  	45.4037
2184.05  	45.1295
2196.99  	44.3703
2209.92  	44.3137
2222.85  	44.0664
2235.78  	43.849
2248.71  	43.573
2261.65  	43.3945
2274.58  	43.2654
2287.51  	42.905
2300.44  	42.7399
2313.37  	42.576
2326.31  	42.4156
2339.24  	42.4192
2352.17  	42.2188
2365.1  	42.2497
2378.03  	42.2853
2390.96  	42.2053
2403.9  	42.2018
2416.83  	42.1288
2429.76  	42.0417
2442.69  	41.9473
2455.62  	41.8956
2468.56  	41.8124
2481.49  	41.7602
2494.42  	41.751
2507.35  	41.5679
2520.28  	41.4577
2533.22  	41.4528
2546.15  	41.3778
2559.08  	41.2428
2572.01  	41.2166
2584.94  	41.1376
2597.88  	40.9472
2610.81  	40.8761
2623.74  	40.7935
2636.67  	40.6687
2649.6  	40.5754
2662.53  	40.4988
2675.47  	40.3687
2688.4  	40.3097
2701.33  	40.2167
2714.26  	40.1287
2727.19  	40.0579
2740.13  	39.9799
2753.06  	39.8931
2765.99  	39.7878
2778.92  	39.7036
2791.85  	39.5736
2804.79  	39.4807
2817.72  	39.3879
2830.65  	39.336
2843.58  	39.2258
2856.51  	39.2563
2869.45  	39.1382
2882.38  	39.0574
2895.31  	38.9662
2908.24  	38.9698
2921.17  	38.904
2934.1  	38.9421
2947.04  	38.8806
2959.97  	38.6853
2972.9  	38.7321
2985.83  	39.0049
2998.76  	38.9512
3011.7  	38.8253
3024.63  	38.7621
3037.56  	38.7333
3050.49  	38.6945
3063.42  	38.6868
3076.36  	38.6079
3089.29  	38.4955
3102.22  	38.5228
3115.15  	38.4769
3128.08  	38.4147
3141.02  	38.3533
3153.95  	38.2469
3166.88  	38.1758
3179.81  	38.1384
3192.74  	38.1724
3205.67  	38.2629
3218.61  	38.3745
3231.54  	38.6018
3244.47  	38.7497
3257.4  	38.8027
3270.33  	38.8713
3283.27  	38.9211
3296.2  	38.9561
3309.13  	38.8055
3322.06  	38.8718
3334.99  	38.7681
3347.93  	38.6819
3360.86  	38.7235
3373.79  	38.8302
3386.72  	39.0342
3399.65  	38.9701
3412.59  	39.1713
3425.52  	39.2933
3438.45  	39.5446
3451.38  	39.6264
3464.31  	39.9034
3477.24  	40.1079
3490.18  	40.3286
3503.11  	40.3521
3516.04  	40.6316
3528.97  	40.8885
3541.9  	41.053
3554.84  	41.2957
3567.77  	41.4645
3580.7  	41.7876
3593.63  	42.0644
3606.56  	42.4459
3619.5  	42.7375
3632.43  	43.0268
3645.36  	43.1231
3658.29  	43.0956
3671.22  	43.0794
3684.15  	42.7445
3697.09  	42.6297
3710.02  	42.5076
3722.95  	42.3677
3735.88  	41.9988
3748.81  	42.1402
3761.75  	42.1152
3774.68  	41.9901
3787.61  	41.7722
3800.54  	41.7927
3813.47  	41.7054
3826.41  	41.6442
3839.34  	41.639
3852.27  	41.4746
3865.2  	41.533
3878.13  	41.4428
3891.07  	41.3882
3904  	41.4415
3916.93  	41.357
3929.86  	41.2406
3942.79  	41.2543
3955.72  	41.2451
3968.66  	41.235
3981.59  	41.262
3994.52  	41.1771
4000.27  	41.1958