File: FTIR/ILUM_29-10-2024/Silica_S7_1.txt
##TITLE=No Description
##DATA TYPE=INFRARED SPECTRUM
##XUNITS=1/CM
##YUNITS=%T
399.452  	35.6277
412.384  	27.4191
425.316  	22.6141
438.248  	19.9987
451.18  	19.5596
464.112  	25.6436
477.043  	39.3188
489.975  	58.3115
502.907  	68.2117
515.839  	71.1792
528.771  	71.2934
541.703  	71.1591
554.635  	71.5785
567.567  	72.4274
580.499  	74.4549
593.431  	76.3637
606.362  	78.0955
619.294  	79.2916
632.226  	79.9504
645.158  	80.4348
658.09  	80.8461
671.022  	81.1516
683.954  	81.3487
696.886  	81.3327
709.818  	81.2819
722.75  	81.1576
735.681  	80.8631
748.613  	80.5692
761.545  	80.1577
774.477  	76.6005
787.409  	70.4796
800.341  	69.9597
813.273  	73.407
826.205  	78.8155
839.137  	84.4002
852.069  	87.2275
865.001  	87.5052
877.932  	86.7854
890.864  	84.5724
903.796  	80.8528
916.728  	76.3418
929.66  	71.9241
942.592  	69.3664
955.524  	69.3911
968.456  	72.1127
981.388  	77.0419
994.32  	79.1173
1007.25  	69.9531
1020.18  	49.6557
1033.12  	28.0608
1046.05  	17.4488
1058.98  	15.375
1071.91  	17.2686
1084.84  	20.972
1097.77  	27.7337
1110.71  	42.015
1123.64  	53.3903
1136.57  	57.2749
1149.5  	59.5441
1162.43  	61.5398
1175.37  	64.0594
1188.3  	66.9198
1201.23  	69.8862
1214.16  	73.1556
1227.09  	77.0678
1240.03  	82.1822
1252.96  	88.6156
1265.89  	93.1376
1278.82  	94.9712
1291.75  	95.86
1304.69  	96.3777
1317.62  	96.6728
1330.55  	96.9081
1343.48  	97.0649
1356.41  	97.2224
1369.34  	97.3071
1382.28  	97.3738
1395.21  	97.4069
1408.14  	97.4224
1421.07  	97.4027
1434  	97.4804
1446.94  	97.4978
1459.87  	97.5038
1472.8  	97.6588
1485.73  	97.6214
1498.66  	97.5562
1511.6  	97.5183
1524.53  	97.4701
1537.46  	97.638
1550.39  	97.5249
1563.32  	97.406
1576.26  	97.5633
1589.19  	97.0923
1602.12  	96.5064
1615.05  	95.6753
1627.98  	95.0522
1640.91  	95.2681
1653.85  	95.7658
1666.78  	96.2061
1679.71  	96.8359
1692.64  	97.3343
1705.57  	97.6222
1718.51  	97.7778
1731.44  	98.0065
1744.37  	98.0644
1757.3  	98.1065
1770.23  	98.1827
1783.17  	98.1672
1796.1  	98.0879
1809.03  	98.2636
1821.96  	98.1753
1834.89  	98.1231
1847.83  	98.0431
1860.76  	97.9565
1873.69  	97.92
1886.62  	98.0336
1899.55  	98.3878
1912.48  	98.2517
1925.42  	98.3982
1938.35  	98.3371
1951.28  	98.7129
1964.21  	98.9375
1977.14  	98.5452
1990.08  	98.6314
2003.01  	98.8853
2015.94  	98.8504
2028.87  	99.4332
2041.8  	99.5629
2054.74  	98.887
2067.67  	99.2205
2080.6  	98.9642
2093.53  	99.0358
2106.46  	98.8935
2119.39  	98.9621
2132.33  	99.0608
2145.26  	99.2413
2158.19  	99.5247
2171.12  	99.0787
2184.05  	99.1569
2196.99  	99.2599
2209.92  	99.1058
2222.85  	99.1873
2235.78  	99.4411
2248.71  	99.0711
2261.65  	99.1971
2274.58  	99.1578
2287.51  	98.8996
2300.44  	98.8547
2313.37  	98.7456
2326.31  	98.7318
2339.24  	98.8912
2352.17  	98.7614
2365.1  	98.8517
2378.03  	98.7708
2390.96  	98.9695
2403.9  	99.058
2416.83  	99.0405
2429.76  	98.9199
2442.69  	99.0725
2455.62  	99.0249
2468.56  	99.0219
2481.49  	99.0465
2494.42  	99.0059
2507.35  	99.207
2520.28  	98.9783
2533.22  	99.06
2546.15  	99.0487
2559.08  	99.1845
2572.01  	99.145
2584.94  	99.2259
2597.88  	99.2837
2610.81  	99.2857
2623.74  	99.1334
2636.67  	99.1297
2649.6  	99.0367
2662.53  	99.0211
2675.47  	98.9654
2688.4  	98.909
2701.33  	98.8686
2714.26  	98.7637
2727.19  	98.6847
2740.13  	98.7048
2753.06  	98.5979
2765.99  	98.5813
2778.92  	98.49
2791.85  	98.45
2804.79  	98.4295
2817.72  	98.3192
2830.65  	98.2617
2843.58  	98.1031
2856.51  	98.0995
2869.45  	97.928
2882.38  	97.8438
2895.31  	97.7467
2908.24  	97.6989
2921.17  	97.5702
2934.1  	97.379
2947.04  	97.2584
2959.97  	97.1551
2972.9  	97.002
2985.83  	96.8237
2998.76  	96.7682
3011.7  	96.5468
3024.63  	96.4398
3037.56  	96.2846
3050.49  	96.0329
3063.42  	95.8938
3076.36  	95.7205
3089.29  	95.5305
3102.22  	95.4635
3115.15  	95.322
3128.08  	95.0092
3141.02  	94.829
3153.95  	94.5762
3166.88  	94.4739
3179.81  	94.2831
3192.74  	93.9921
3205.67  	93.8854
3218.61  	93.6942
3231.54  	93.6301
3244.47  	93.3838
3257.4  	93.3894
3270.33  	93.3927
3283.27  	93.4517
3296.2  	93.4531
3309.13  	93.3308
3322.06  	93.375
3334.99  	93.3914
3347.93  	93.2434
3360.86  	93.3724
3373.79  	93.359
3386.72  	93.1569
3399.65  	93.2612
3412.59  	93.3348
3425.52  	93.6161
3438.45  	93.7151
3451.38  	93.8325
3464.31  	94.3015
3477.24  	94.3924
3490.18  	94.715
3503.11  	95.1182
3516.04  	95.4358
3528.97  	95.6167
3541.9  	96.0721
3554.84  	96.4239
3567.77  	96.6471
3580.7  	96.9499
3593.63  	97.0489
3606.56  	97.4442
3619.5  	97.5177
3632.43  	97.6992
3645.36  	98.1413
3658.29  	98.4769
3671.22  	99.0669
3684.15  	99.4326
3697.09  	99.5233
3710.02  	99.7288
3722.95  	99.8988
3735.88  	99.5724
3748.81  	99.8204
3761.75  	99.9919
3774.68  	100.198
3787.61  	100.192
3800.54  	99.9494
3813.47  	100.058
3826.41  	100.122
3839.34  	99.8834
3852.27  	100.342
3865.2  	100.185
3878.13  	100.274
3891.07  	100.194
3904  	99.9612
3916.93  	100.34
3929.86  	100.353
3942.79  	100.371
3955.72  	100.319
3968.66  	100.326
3981.59  	100.334
3994.52  	100.3
4000.27  	100.372