File: FTIR/LNB_28-10-2024/HCS-MoS2.csv
Criado como novo conjunto de dados;Amostra 021 por Analyst data segunda-feira, outubro 28 2024
cm-1;%T
4000,00;100,67
3988,00;100,68
3976,00;100,68
3964,00;100,68
3952,00;100,69
3940,00;100,71
3928,00;100,72
3916,00;100,74
3904,00;100,74
3892,00;100,76
3880,00;100,80
3868,00;100,80
3856,00;100,81
3844,00;100,80
3832,00;100,85
3820,00;100,84
3808,00;100,82
3796,00;100,87
3784,00;100,83
3772,00;100,83
3760,00;100,84
3748,00;100,88
3736,00;100,85
3724,00;100,86
3712,00;100,82
3700,00;100,79
3688,00;100,76
3676,00;100,61
3664,00;100,25
3652,00;99,86
3640,00;99,41
3628,00;99,13
3616,00;98,92
3604,00;98,72
3592,00;98,55
3580,00;98,37
3568,00;98,18
3556,00;97,93
3544,00;97,70
3532,00;97,49
3520,00;97,28
3508,00;97,07
3496,00;96,87
3484,00;96,67
3472,00;96,46
3460,00;96,23
3448,00;96,00
3436,00;95,77
3424,00;95,59
3412,00;95,46
3400,00;95,38
3388,00;95,29
3376,00;95,26
3364,00;95,26
3352,00;95,32
3340,00;95,38
3328,00;95,44
3316,00;95,49
3304,00;95,64
3292,00;95,70
3280,00;95,66
3268,00;95,73
3256,00;95,76
3244,00;95,77
3232,00;95,84
3220,00;95,81
3208,00;95,87
3196,00;95,95
3184,00;96,07
3172,00;96,19
3160,00;96,30
3148,00;96,43
3136,00;96,55
3124,00;96,64
3112,00;96,78
3100,00;96,91
3088,00;97,06
3076,00;97,18
3064,00;97,30
3052,00;97,50
3040,00;97,69
3028,00;97,80
3016,00;98,03
3004,00;98,06
2992,00;98,18
2980,00;98,22
2968,00;98,12
2956,00;98,16
2944,00;98,30
2932,00;98,28
2920,00;98,34
2908,00;98,46
2896,00;98,56
2884,00;98,58
2872,00;98,69
2860,00;98,73
2848,00;98,80
2836,00;98,91
2824,00;98,95
2812,00;99,01
2800,00;99,08
2788,00;99,14
2776,00;99,17
2764,00;99,18
2752,00;99,23
2740,00;99,26
2728,00;99,31
2716,00;99,35
2704,00;99,38
2692,00;99,43
2680,00;99,48
2668,00;99,49
2656,00;99,44
2644,00;99,48
2632,00;99,55
2620,00;99,61
2608,00;99,68
2596,00;99,75
2584,00;99,82
2572,00;99,89
2560,00;99,95
2548,00;100,01
2536,00;100,08
2524,00;100,14
2512,00;100,18
2500,00;100,23
2488,00;100,28
2476,00;100,34
2464,00;100,38
2452,00;100,38
2440,00;100,46
2428,00;100,53
2416,00;100,58
2404,00;100,66
2392,00;100,68
2380,00;100,71
2368,00;100,72
2356,00;100,74
2344,00;100,61
2332,00;100,71
2320,00;100,51
2308,00;100,66
2296,00;100,61
2284,00;100,52
2272,00;100,69
2260,00;100,77
2248,00;100,83
2236,00;100,78
2224,00;100,76
2212,00;100,81
2200,00;100,82
2188,00;100,81
2176,00;101,02
2164,00;100,68
2152,00;101,57
2140,00;101,39
2128,00;101,34
2116,00;101,00
2104,00;100,96
2092,00;101,10
2080,00;100,91
2068,00;100,99
2056,00;100,97
2044,00;101,04
2032,00;101,27
2020,00;101,33
2008,00;101,33
1996,00;101,22
1984,00;101,05
1972,00;101,47
1960,00;101,46
1948,00;101,31
1936,00;101,26
1924,00;101,19
1912,00;101,11
1900,00;101,11
1888,00;101,10
1876,00;101,05
1864,00;101,03
1852,00;100,98
1840,00;100,96
1828,00;100,91
1816,00;100,88
1804,00;100,63
1792,00;100,48
1780,00;100,15
1768,00;99,69
1756,00;99,09
1744,00;98,34
1732,00;97,32
1720,00;95,74
1708,00;94,40
1696,00;93,19
1684,00;91,95
1672,00;90,30
1660,00;88,27
1648,00;86,14
1636,00;83,97
1624,00;82,10
1612,00;80,85
1600,00;80,28
1588,00;80,29
1576,00;80,82
1564,00;81,81
1552,00;82,93
1540,00;83,80
1528,00;84,54
1516,00;84,90
1504,00;85,06
1492,00;85,13
1480,00;85,04
1468,00;84,74
1456,00;84,49
1444,00;84,44
1432,00;84,35
1420,00;84,31
1408,00;84,14
1396,00;83,76
1384,00;83,15
1372,00;82,73
1360,00;82,57
1348,00;82,47
1336,00;82,39
1324,00;82,34
1312,00;82,19
1300,00;82,03
1288,00;81,92
1276,00;81,91
1264,00;81,99
1252,00;82,09
1240,00;82,26
1228,00;82,56
1216,00;83,04
1204,00;83,66
1192,00;84,32
1180,00;84,94
1168,00;85,51
1156,00;86,20
1144,00;87,10
1132,00;87,96
1120,00;88,74
1108,00;89,44
1096,00;90,01
1084,00;90,28
1072,00;90,37
1060,00;90,51
1048,00;90,89
1036,00;91,52
1024,00;92,18
1012,00;92,81
1000,00;93,27
988,00;93,61
976,00;93,82
964,00;93,94
952,00;93,97
940,00;93,89
928,00;93,64
916,00;93,18
904,00;92,55
892,00;91,82
880,00;91,12
868,00;90,44
856,00;89,77
844,00;89,09
832,00;88,40
820,00;88,00
808,00;87,73
796,00;87,50
784,00;87,26
772,00;86,96
760,00;86,68
748,00;86,54
736,00;86,54
724,00;86,33
712,00;86,09
700,00;85,82
688,00;85,46
676,00;85,13
664,00;84,77
652,00;84,40
640,00;84,06
628,00;83,71
616,00;83,48
604,00;83,25
592,00;83,04
580,00;82,93
568,00;82,73
556,00;82,50
544,00;82,36
532,00;82,32
520,00;82,36
508,00;82,16
500,00;81,81