File: FTIR/LNB_28-10-2024/MoS2(1)-5H.csv
Criado como novo conjunto de dados;Amostra 007 por Analyst data segunda-feira, outubro 28 2024
cm-1;%T
4000,00;58,74
3988,00;58,72
3976,00;58,68
3964,00;58,65
3952,00;58,54
3940,00;58,50
3928,00;58,32
3916,00;58,38
3904,00;57,70
3892,00;58,19
3880,00;58,12
3868,00;57,69
3856,00;57,15
3844,00;58,10
3832,00;57,99
3820,00;57,66
3808,00;58,10
3796,00;58,28
3784,00;58,52
3772,00;58,33
3760,00;58,13
3748,00;56,98
3736,00;57,22
3724,00;58,05
3712,00;57,78
3700,00;58,53
3688,00;57,95
3676,00;57,45
3664,00;58,81
3652,00;57,54
3640,00;58,76
3628,00;57,95
3616,00;57,78
3604,00;58,37
3592,00;58,25
3580,00;58,59
3568,00;57,86
3556,00;58,50
3544,00;58,28
3532,00;58,42
3520,00;58,38
3508,00;58,37
3496,00;58,40
3484,00;58,33
3472,00;58,38
3460,00;58,34
3448,00;58,25
3436,00;58,32
3424,00;58,28
3412,00;58,28
3400,00;58,23
3388,00;58,23
3376,00;58,22
3364,00;58,20
3352,00;58,21
3340,00;58,21
3328,00;58,23
3316,00;58,28
3304,00;58,31
3292,00;58,32
3280,00;58,34
3268,00;58,38
3256,00;58,37
3244,00;58,39
3232,00;58,40
3220,00;58,38
3208,00;58,37
3196,00;58,33
3184,00;58,30
3172,00;58,27
3160,00;58,22
3148,00;58,17
3136,00;58,12
3124,00;58,04
3112,00;58,02
3100,00;57,98
3088,00;57,98
3076,00;57,96
3064,00;57,92
3052,00;57,91
3040,00;57,90
3028,00;57,85
3016,00;57,83
3004,00;57,81
2992,00;57,79
2980,00;57,75
2968,00;57,69
2956,00;57,63
2944,00;57,56
2932,00;57,54
2920,00;57,39
2908,00;57,29
2896,00;57,37
2884,00;57,40
2872,00;57,41
2860,00;57,40
2848,00;57,37
2836,00;57,37
2824,00;57,42
2812,00;57,43
2800,00;57,44
2788,00;57,44
2776,00;57,44
2764,00;57,44
2752,00;57,44
2740,00;57,44
2728,00;57,45
2716,00;57,46
2704,00;57,46
2692,00;57,47
2680,00;57,47
2668,00;57,47
2656,00;57,46
2644,00;57,55
2632,00;57,67
2620,00;57,76
2608,00;57,83
2596,00;57,89
2584,00;57,94
2572,00;57,98
2560,00;58,01
2548,00;58,03
2536,00;58,05
2524,00;58,07
2512,00;58,07
2500,00;58,08
2488,00;58,10
2476,00;58,11
2464,00;58,11
2452,00;58,10
2440,00;58,13
2428,00;58,16
2416,00;58,17
2404,00;58,20
2392,00;58,18
2380,00;58,10
2368,00;58,11
2356,00;58,15
2344,00;57,81
2332,00;58,18
2320,00;58,20
2308,00;58,28
2296,00;58,17
2284,00;58,10
2272,00;58,20
2260,00;58,26
2248,00;58,32
2236,00;58,34
2224,00;58,37
2212,00;58,39
2200,00;58,41
2188,00;58,36
2176,00;58,47
2164,00;58,25
2152,00;58,90
2140,00;58,80
2128,00;58,83
2116,00;58,62
2104,00;58,61
2092,00;58,72
2080,00;58,61
2068,00;58,66
2056,00;58,66
2044,00;58,64
2032,00;58,83
2020,00;58,89
2008,00;58,96
1996,00;58,94
1984,00;58,84
1972,00;59,18
1960,00;59,31
1948,00;59,24
1936,00;59,29
1924,00;59,28
1912,00;59,28
1900,00;59,30
1888,00;59,32
1876,00;59,35
1864,00;59,38
1852,00;59,38
1840,00;59,42
1828,00;59,38
1816,00;59,50
1804,00;59,36
1792,00;59,38
1780,00;59,37
1768,00;59,41
1756,00;59,33
1744,00;59,24
1732,00;59,19
1720,00;59,18
1708,00;59,06
1696,00;59,10
1684,00;58,89
1672,00;58,91
1660,00;58,92
1648,00;58,68
1636,00;58,58
1624,00;58,48
1612,00;58,51
1600,00;58,59
1588,00;58,68
1576,00;58,72
1564,00;58,80
1552,00;58,91
1540,00;58,98
1528,00;59,06
1516,00;59,15
1504,00;59,18
1492,00;59,22
1480,00;59,21
1468,00;59,03
1456,00;58,81
1444,00;58,61
1432,00;58,50
1420,00;58,56
1408,00;58,76
1396,00;58,98
1384,00;59,12
1372,00;59,16
1360,00;59,26
1348,00;59,37
1336,00;59,52
1324,00;59,63
1312,00;59,72
1300,00;59,82
1288,00;59,87
1276,00;59,83
1264,00;59,51
1252,00;59,27
1240,00;58,79
1228,00;58,25
1216,00;57,77
1204,00;57,36
1192,00;57,02
1180,00;56,67
1168,00;56,21
1156,00;55,83
1144,00;55,43
1132,00;55,12
1120,00;54,92
1108,00;54,93
1096,00;55,17
1084,00;55,47
1072,00;55,70
1060,00;55,87
1048,00;56,22
1036,00;56,71
1024,00;57,26
1012,00;57,60
1000,00;57,73
988,00;57,64
976,00;57,38
964,00;57,41
952,00;57,40
940,00;57,68
928,00;58,11
916,00;58,36
904,00;58,59
892,00;58,84
880,00;58,97
868,00;59,11
856,00;59,28
844,00;59,34
832,00;59,30
820,00;59,04
808,00;58,65
796,00;58,21
784,00;57,53
772,00;56,77
760,00;56,05
748,00;55,50
736,00;55,02
724,00;54,56
712,00;54,18
700,00;53,77
688,00;53,36
676,00;52,72
664,00;52,24
652,00;51,49
640,00;50,81
628,00;49,95
616,00;49,20
604,00;48,55
592,00;47,80
580,00;47,53
568,00;47,68
556,00;48,08
544,00;48,44
532,00;47,59
520,00;46,11
508,00;43,83
500,00;43,16