File: FTIR/LNB_28-10-2024/MoS2(1)-15H.csv
Criado como novo conjunto de dados;Amostra 009 por Analyst data segunda-feira, outubro 28 2024
cm-1;%T
4000,00;38,72
3988,00;38,73
3976,00;38,74
3964,00;38,76
3952,00;38,76
3940,00;38,72
3928,00;38,73
3916,00;38,73
3904,00;38,77
3892,00;38,76
3880,00;38,67
3868,00;38,80
3856,00;38,79
3844,00;38,90
3832,00;38,81
3820,00;38,90
3808,00;39,01
3796,00;38,89
3784,00;39,09
3772,00;39,15
3760,00;39,14
3748,00;39,12
3736,00;39,15
3724,00;39,32
3712,00;39,28
3700,00;39,37
3688,00;39,28
3676,00;39,26
3664,00;39,26
3652,00;39,21
3640,00;39,11
3628,00;38,95
3616,00;38,77
3604,00;38,62
3592,00;38,43
3580,00;38,26
3568,00;38,11
3556,00;37,93
3544,00;37,70
3532,00;37,63
3520,00;37,43
3508,00;37,33
3496,00;37,22
3484,00;37,11
3472,00;37,00
3460,00;36,89
3448,00;36,81
3436,00;36,71
3424,00;36,63
3412,00;36,56
3400,00;36,50
3388,00;36,43
3376,00;36,39
3364,00;36,34
3352,00;36,32
3340,00;36,30
3328,00;36,28
3316,00;36,25
3304,00;36,23
3292,00;36,22
3280,00;36,17
3268,00;36,15
3256,00;36,14
3244,00;36,11
3232,00;36,10
3220,00;36,09
3208,00;36,08
3196,00;36,09
3184,00;36,11
3172,00;36,14
3160,00;36,17
3148,00;36,21
3136,00;36,24
3124,00;36,27
3112,00;36,30
3100,00;36,33
3088,00;36,35
3076,00;36,36
3064,00;36,38
3052,00;36,42
3040,00;36,45
3028,00;36,47
3016,00;36,55
3004,00;36,56
2992,00;36,60
2980,00;36,60
2968,00;36,57
2956,00;36,50
2944,00;36,52
2932,00;36,54
2920,00;36,31
2908,00;36,19
2896,00;36,45
2884,00;36,61
2872,00;36,72
2860,00;36,76
2848,00;36,73
2836,00;36,85
2824,00;37,00
2812,00;37,10
2800,00;37,17
2788,00;37,24
2776,00;37,30
2764,00;37,35
2752,00;37,40
2740,00;37,45
2728,00;37,51
2716,00;37,55
2704,00;37,59
2692,00;37,64
2680,00;37,69
2668,00;37,72
2656,00;37,79
2644,00;37,91
2632,00;38,02
2620,00;38,11
2608,00;38,18
2596,00;38,24
2584,00;38,30
2572,00;38,34
2560,00;38,39
2548,00;38,42
2536,00;38,46
2524,00;38,48
2512,00;38,50
2500,00;38,52
2488,00;38,55
2476,00;38,56
2464,00;38,58
2452,00;38,58
2440,00;38,62
2428,00;38,63
2416,00;38,65
2404,00;38,67
2392,00;38,66
2380,00;38,76
2368,00;38,80
2356,00;38,85
2344,00;39,48
2332,00;38,45
2320,00;38,48
2308,00;38,64
2296,00;38,67
2284,00;38,78
2272,00;38,96
2260,00;38,97
2248,00;38,98
2236,00;39,02
2224,00;39,06
2212,00;39,07
2200,00;39,09
2188,00;39,11
2176,00;39,14
2164,00;39,14
2152,00;39,25
2140,00;39,25
2128,00;39,25
2116,00;39,20
2104,00;39,23
2092,00;39,31
2080,00;39,33
2068,00;39,39
2056,00;39,44
2044,00;39,53
2032,00;39,60
2020,00;39,62
2008,00;39,68
1996,00;39,67
1984,00;39,69
1972,00;39,83
1960,00;39,86
1948,00;39,84
1936,00;39,84
1924,00;39,88
1912,00;39,91
1900,00;39,93
1888,00;39,96
1876,00;40,01
1864,00;40,02
1852,00;40,10
1840,00;40,10
1828,00;40,12
1816,00;40,16
1804,00;40,17
1792,00;40,17
1780,00;40,17
1768,00;40,11
1756,00;40,09
1744,00;39,92
1732,00;39,83
1720,00;39,54
1708,00;39,27
1696,00;38,90
1684,00;38,66
1672,00;38,35
1660,00;38,12
1648,00;37,89
1636,00;37,74
1624,00;37,68
1612,00;37,80
1600,00;38,06
1588,00;38,34
1576,00;38,58
1564,00;38,77
1552,00;39,00
1540,00;39,09
1528,00;39,34
1516,00;39,43
1504,00;39,61
1492,00;39,66
1480,00;39,63
1468,00;39,33
1456,00;38,93
1444,00;38,85
1432,00;38,84
1420,00;38,91
1408,00;39,06
1396,00;39,19
1384,00;39,24
1372,00;39,19
1360,00;39,25
1348,00;39,40
1336,00;39,59
1324,00;39,75
1312,00;39,77
1300,00;39,85
1288,00;39,84
1276,00;39,67
1264,00;39,11
1252,00;38,61
1240,00;37,83
1228,00;37,00
1216,00;36,37
1204,00;35,89
1192,00;35,58
1180,00;35,37
1168,00;35,07
1156,00;34,63
1144,00;34,10
1132,00;33,63
1120,00;33,38
1108,00;33,48
1096,00;33,77
1084,00;33,97
1072,00;34,07
1060,00;34,15
1048,00;34,26
1036,00;34,82
1024,00;35,68
1012,00;36,13
1000,00;36,26
988,00;36,37
976,00;36,28
964,00;36,14
952,00;35,86
940,00;35,68
928,00;36,00
916,00;36,27
904,00;36,27
892,00;36,37
880,00;36,41
868,00;36,58
856,00;36,82
844,00;36,99
832,00;37,00
820,00;36,68
808,00;36,07
796,00;35,21
784,00;33,92
772,00;32,50
760,00;31,17
748,00;30,05
736,00;29,12
724,00;28,23
712,00;27,42
700,00;26,65
688,00;26,05
676,00;25,21
664,00;24,05
652,00;23,28
640,00;22,20
628,00;21,36
616,00;20,78
604,00;20,36
592,00;19,95
580,00;19,63
568,00;19,16
556,00;18,80
544,00;18,80
532,00;18,19
520,00;17,99
508,00;17,45
500,00;14,71