File: FTIR/LNB_28-10-2024/MoS2(1)-2H.csv
Criado como novo conjunto de dados;Amostra 004 por Analyst data segunda-feira, outubro 28 2024
cm-1;%T
4000,00;27,10
3988,00;27,08
3976,00;27,07
3964,00;27,07
3952,00;27,05
3940,00;27,01
3928,00;26,98
3916,00;26,96
3904,00;26,95
3892,00;26,93
3880,00;26,83
3868,00;26,88
3856,00;26,90
3844,00;26,95
3832,00;26,83
3820,00;26,87
3808,00;26,99
3796,00;26,84
3784,00;27,01
3772,00;27,02
3760,00;26,94
3748,00;26,85
3736,00;26,91
3724,00;26,96
3712,00;27,01
3700,00;27,01
3688,00;26,91
3676,00;26,92
3664,00;26,95
3652,00;26,90
3640,00;26,92
3628,00;26,74
3616,00;26,68
3604,00;26,67
3592,00;26,60
3580,00;26,55
3568,00;26,48
3556,00;26,44
3544,00;26,31
3532,00;26,31
3520,00;26,21
3508,00;26,17
3496,00;26,13
3484,00;26,08
3472,00;26,03
3460,00;25,97
3448,00;25,92
3436,00;25,88
3424,00;25,81
3412,00;25,77
3400,00;25,73
3388,00;25,66
3376,00;25,63
3364,00;25,58
3352,00;25,56
3340,00;25,52
3328,00;25,46
3316,00;25,41
3304,00;25,36
3292,00;25,29
3280,00;25,21
3268,00;25,14
3256,00;25,07
3244,00;25,00
3232,00;24,96
3220,00;24,90
3208,00;24,86
3196,00;24,82
3184,00;24,79
3172,00;24,77
3160,00;24,76
3148,00;24,75
3136,00;24,73
3124,00;24,72
3112,00;24,69
3100,00;24,66
3088,00;24,63
3076,00;24,58
3064,00;24,55
3052,00;24,54
3040,00;24,53
3028,00;24,51
3016,00;24,55
3004,00;24,54
2992,00;24,56
2980,00;24,57
2968,00;24,52
2956,00;24,40
2944,00;24,39
2932,00;24,35
2920,00;24,11
2908,00;24,08
2896,00;24,22
2884,00;24,28
2872,00;24,33
2860,00;24,30
2848,00;24,23
2836,00;24,31
2824,00;24,40
2812,00;24,45
2800,00;24,49
2788,00;24,52
2776,00;24,55
2764,00;24,57
2752,00;24,59
2740,00;24,60
2728,00;24,62
2716,00;24,63
2704,00;24,65
2692,00;24,66
2680,00;24,68
2668,00;24,68
2656,00;24,70
2644,00;24,71
2632,00;24,73
2620,00;24,73
2608,00;24,74
2596,00;24,73
2584,00;24,75
2572,00;24,74
2560,00;24,74
2548,00;24,73
2536,00;24,72
2524,00;24,71
2512,00;24,70
2500,00;24,70
2488,00;24,68
2476,00;24,68
2464,00;24,67
2452,00;24,67
2440,00;24,66
2428,00;24,65
2416,00;24,64
2404,00;24,64
2392,00;24,63
2380,00;24,68
2368,00;24,60
2356,00;24,52
2344,00;24,68
2332,00;24,44
2320,00;24,40
2308,00;24,50
2296,00;24,54
2284,00;24,56
2272,00;24,59
2260,00;24,57
2248,00;24,58
2236,00;24,58
2224,00;24,57
2212,00;24,55
2200,00;24,53
2188,00;24,55
2176,00;24,54
2164,00;24,55
2152,00;24,58
2140,00;24,56
2128,00;24,53
2116,00;24,52
2104,00;24,51
2092,00;24,53
2080,00;24,55
2068,00;24,56
2056,00;24,60
2044,00;24,63
2032,00;24,66
2020,00;24,64
2008,00;24,64
1996,00;24,60
1984,00;24,64
1972,00;24,72
1960,00;24,71
1948,00;24,68
1936,00;24,69
1924,00;24,69
1912,00;24,70
1900,00;24,73
1888,00;24,73
1876,00;24,76
1864,00;24,75
1852,00;24,80
1840,00;24,79
1828,00;24,81
1816,00;24,84
1804,00;24,86
1792,00;24,86
1780,00;24,87
1768,00;24,82
1756,00;24,83
1744,00;24,75
1732,00;24,75
1720,00;24,59
1708,00;24,50
1696,00;24,33
1684,00;24,38
1672,00;24,31
1660,00;24,25
1648,00;24,12
1636,00;24,03
1624,00;23,96
1612,00;23,98
1600,00;24,07
1588,00;24,19
1576,00;24,31
1564,00;24,39
1552,00;24,50
1540,00;24,52
1528,00;24,67
1516,00;24,68
1504,00;24,78
1492,00;24,85
1480,00;24,76
1468,00;24,35
1456,00;23,79
1444,00;23,43
1432,00;23,10
1420,00;23,10
1408,00;23,41
1396,00;23,79
1384,00;24,10
1372,00;24,25
1360,00;24,41
1348,00;24,60
1336,00;24,69
1324,00;24,86
1312,00;24,94
1300,00;25,04
1288,00;25,11
1276,00;25,09
1264,00;24,75
1252,00;24,40
1240,00;23,85
1228,00;23,24
1216,00;22,73
1204,00;22,36
1192,00;22,04
1180,00;21,71
1168,00;21,35
1156,00;21,06
1144,00;20,63
1132,00;20,28
1120,00;20,05
1108,00;20,02
1096,00;20,18
1084,00;20,38
1072,00;20,53
1060,00;20,57
1048,00;20,82
1036,00;21,09
1024,00;21,53
1012,00;21,87
1000,00;22,01
988,00;21,99
976,00;21,69
964,00;21,56
952,00;21,32
940,00;21,63
928,00;22,11
916,00;22,21
904,00;22,28
892,00;22,51
880,00;22,67
868,00;22,89
856,00;23,13
844,00;23,32
832,00;23,38
820,00;23,22
808,00;22,90
796,00;22,65
784,00;22,26
772,00;21,74
760,00;21,21
748,00;20,83
736,00;20,53
724,00;20,22
712,00;20,03
700,00;19,82
688,00;19,66
676,00;19,11
664,00;18,41
652,00;17,94
640,00;17,32
628,00;16,41
616,00;15,67
604,00;15,03
592,00;14,51
580,00;14,34
568,00;14,29
556,00;14,25
544,00;14,13
532,00;13,58
520,00;13,16
508,00;11,99
500,00;9,85