File: FTIR/LNB_28-10-2024/MoS2-NS-Amônia.csv
Criado como novo conjunto de dados;Amostra 013 por Analyst data segunda-feira, outubro 28 2024
cm-1;%T
4000,00;64,36
3988,00;64,39
3976,00;64,43
3964,00;64,48
3952,00;64,52
3940,00;64,54
3928,00;64,58
3916,00;64,61
3904,00;64,66
3892,00;64,73
3880,00;64,73
3868,00;64,87
3856,00;64,89
3844,00;65,05
3832,00;65,07
3820,00;65,18
3808,00;65,34
3796,00;65,35
3784,00;65,54
3772,00;65,66
3760,00;65,75
3748,00;65,83
3736,00;65,91
3724,00;66,09
3712,00;66,28
3700,00;66,40
3688,00;66,49
3676,00;66,61
3664,00;66,80
3652,00;66,78
3640,00;66,80
3628,00;66,57
3616,00;66,28
3604,00;65,99
3592,00;65,67
3580,00;65,42
3568,00;65,20
3556,00;65,04
3544,00;64,78
3532,00;64,76
3520,00;64,59
3508,00;64,51
3496,00;64,38
3484,00;64,30
3472,00;64,20
3460,00;64,09
3448,00;64,03
3436,00;63,90
3424,00;63,87
3412,00;63,78
3400,00;63,71
3388,00;63,71
3376,00;63,70
3364,00;63,67
3352,00;63,67
3340,00;63,65
3328,00;63,63
3316,00;63,57
3304,00;63,42
3292,00;63,28
3280,00;63,11
3268,00;62,88
3256,00;62,70
3244,00;62,50
3232,00;62,34
3220,00;62,23
3208,00;62,14
3196,00;62,08
3184,00;62,07
3172,00;62,10
3160,00;62,17
3148,00;62,25
3136,00;62,33
3124,00;62,43
3112,00;62,45
3100,00;62,47
3088,00;62,43
3076,00;62,36
3064,00;62,33
3052,00;62,33
3040,00;62,31
3028,00;62,36
3016,00;62,42
3004,00;62,52
2992,00;62,55
2980,00;62,54
2968,00;62,58
2956,00;62,68
2944,00;62,82
2932,00;62,94
2920,00;62,98
2908,00;63,04
2896,00;63,14
2884,00;63,22
2872,00;63,29
2860,00;63,37
2848,00;63,44
2836,00;63,54
2824,00;63,65
2812,00;63,80
2800,00;63,95
2788,00;64,10
2776,00;64,26
2764,00;64,42
2752,00;64,57
2740,00;64,72
2728,00;64,86
2716,00;64,99
2704,00;65,13
2692,00;65,27
2680,00;65,39
2668,00;65,52
2656,00;65,67
2644,00;65,94
2632,00;66,19
2620,00;66,41
2608,00;66,60
2596,00;66,78
2584,00;66,94
2572,00;67,08
2560,00;67,22
2548,00;67,34
2536,00;67,46
2524,00;67,57
2512,00;67,67
2500,00;67,78
2488,00;67,87
2476,00;67,97
2464,00;68,05
2452,00;68,13
2440,00;68,25
2428,00;68,34
2416,00;68,44
2404,00;68,53
2392,00;68,58
2380,00;68,61
2368,00;68,63
2356,00;68,46
2344,00;68,71
2332,00;68,67
2320,00;68,74
2308,00;69,08
2296,00;69,29
2284,00;69,41
2272,00;69,64
2260,00;69,81
2248,00;69,95
2236,00;70,06
2224,00;70,17
2212,00;70,32
2200,00;70,39
2188,00;70,48
2176,00;70,65
2164,00;70,61
2152,00;71,09
2140,00;71,02
2128,00;71,05
2116,00;70,99
2104,00;71,08
2092,00;71,21
2080,00;71,23
2068,00;71,36
2056,00;71,48
2044,00;71,64
2032,00;71,84
2020,00;71,94
2008,00;72,03
1996,00;72,02
1984,00;72,06
1972,00;72,41
1960,00;72,54
1948,00;72,57
1936,00;72,65
1924,00;72,73
1912,00;72,81
1900,00;72,89
1888,00;72,96
1876,00;73,07
1864,00;73,12
1852,00;73,24
1840,00;73,30
1828,00;73,36
1816,00;73,48
1804,00;73,49
1792,00;73,55
1780,00;73,66
1768,00;73,71
1756,00;73,78
1744,00;73,75
1732,00;73,64
1720,00;73,18
1708,00;72,47
1696,00;72,04
1684,00;71,58
1672,00;70,66
1660,00;69,63
1648,00;68,80
1636,00;67,87
1624,00;66,82
1612,00;66,10
1600,00;66,07
1588,00;66,79
1576,00;67,82
1564,00;69,00
1552,00;70,18
1540,00;71,03
1528,00;71,62
1516,00;72,00
1504,00;72,39
1492,00;72,30
1480,00;71,97
1468,00;70,88
1456,00;68,66
1444,00;66,70
1432,00;65,00
1420,00;64,51
1408,00;65,51
1396,00;67,18
1384,00;68,62
1372,00;69,70
1360,00;70,93
1348,00;71,61
1336,00;72,04
1324,00;72,20
1312,00;72,25
1300,00;72,86
1288,00;73,36
1276,00;73,57
1264,00;73,28
1252,00;72,45
1240,00;71,25
1228,00;70,09
1216,00;68,74
1204,00;67,09
1192,00;65,62
1180,00;64,71
1168,00;64,65
1156,00;64,83
1144,00;64,72
1132,00;63,69
1120,00;62,42
1108,00;62,66
1096,00;64,66
1084,00;66,74
1072,00;67,71
1060,00;67,40
1048,00;65,93
1036,00;63,75
1024,00;64,25
1012,00;67,36
1000,00;69,40
988,00;69,77
976,00;67,69
964,00;63,93
952,00;59,75
940,00;56,94
928,00;58,08
916,00;57,32
904,00;56,40
892,00;58,72
880,00;61,06
868,00;61,76
856,00;62,12
844,00;62,66
832,00;63,32
820,00;63,24
808,00;61,89
796,00;59,94
784,00;58,19
772,00;56,40
760,00;55,31
748,00;54,90
736,00;54,53
724,00;53,97
712,00;53,51
700,00;53,34
688,00;53,71
676,00;54,17
664,00;53,73
652,00;53,32
640,00;53,48
628,00;53,01
616,00;52,41
604,00;52,15
592,00;52,21
580,00;52,13
568,00;52,41
556,00;53,05
544,00;53,97
532,00;54,93
520,00;55,44
508,00;56,14
500,00;55,32