File: FTIR/LNB_28-10-2024/MoS2(1)-20H.csv
Criado como novo conjunto de dados;Amostra 010 por Analyst data segunda-feira, outubro 28 2024
cm-1;%T
4000,00;48,00
3988,00;48,00
3976,00;48,00
3964,00;48,01
3952,00;48,00
3940,00;48,01
3928,00;48,00
3916,00;48,03
3904,00;47,99
3892,00;48,05
3880,00;48,01
3868,00;48,02
3856,00;48,10
3844,00;48,12
3832,00;48,12
3820,00;48,11
3808,00;48,29
3796,00;48,24
3784,00;48,35
3772,00;48,40
3760,00;48,38
3748,00;48,33
3736,00;48,37
3724,00;48,52
3712,00;48,56
3700,00;48,65
3688,00;48,62
3676,00;48,64
3664,00;48,68
3652,00;48,53
3640,00;48,50
3628,00;48,29
3616,00;48,09
3604,00;47,97
3592,00;47,79
3580,00;47,64
3568,00;47,38
3556,00;47,30
3544,00;47,11
3532,00;46,99
3520,00;46,84
3508,00;46,71
3496,00;46,60
3484,00;46,48
3472,00;46,39
3460,00;46,28
3448,00;46,18
3436,00;46,11
3424,00;46,03
3412,00;45,97
3400,00;45,91
3388,00;45,85
3376,00;45,82
3364,00;45,78
3352,00;45,77
3340,00;45,77
3328,00;45,76
3316,00;45,77
3304,00;45,80
3292,00;45,81
3280,00;45,81
3268,00;45,83
3256,00;45,83
3244,00;45,83
3232,00;45,84
3220,00;45,82
3208,00;45,81
3196,00;45,81
3184,00;45,81
3172,00;45,81
3160,00;45,81
3148,00;45,81
3136,00;45,81
3124,00;45,82
3112,00;45,84
3100,00;45,85
3088,00;45,87
3076,00;45,89
3064,00;45,90
3052,00;45,92
3040,00;45,95
3028,00;45,95
3016,00;45,99
3004,00;45,99
2992,00;46,00
2980,00;45,96
2968,00;45,87
2956,00;45,74
2944,00;45,71
2932,00;45,69
2920,00;45,39
2908,00;45,19
2896,00;45,49
2884,00;45,68
2872,00;45,78
2860,00;45,82
2848,00;45,78
2836,00;45,87
2824,00;46,05
2812,00;46,15
2800,00;46,21
2788,00;46,26
2776,00;46,31
2764,00;46,34
2752,00;46,39
2740,00;46,42
2728,00;46,47
2716,00;46,50
2704,00;46,54
2692,00;46,57
2680,00;46,62
2668,00;46,64
2656,00;46,67
2644,00;46,79
2632,00;46,91
2620,00;47,01
2608,00;47,09
2596,00;47,17
2584,00;47,22
2572,00;47,27
2560,00;47,31
2548,00;47,34
2536,00;47,36
2524,00;47,39
2512,00;47,41
2500,00;47,42
2488,00;47,44
2476,00;47,46
2464,00;47,47
2452,00;47,47
2440,00;47,50
2428,00;47,53
2416,00;47,54
2404,00;47,57
2392,00;47,57
2380,00;47,59
2368,00;47,61
2356,00;47,54
2344,00;47,57
2332,00;47,50
2320,00;47,46
2308,00;47,56
2296,00;47,59
2284,00;47,59
2272,00;47,71
2260,00;47,77
2248,00;47,83
2236,00;47,84
2224,00;47,87
2212,00;47,89
2200,00;47,91
2188,00;47,90
2176,00;48,00
2164,00;47,88
2152,00;48,27
2140,00;48,22
2128,00;48,18
2116,00;48,00
2104,00;48,00
2092,00;48,09
2080,00;48,03
2068,00;48,10
2056,00;48,13
2044,00;48,19
2032,00;48,32
2020,00;48,34
2008,00;48,42
1996,00;48,34
1984,00;48,28
1972,00;48,55
1960,00;48,57
1948,00;48,52
1936,00;48,51
1924,00;48,51
1912,00;48,47
1900,00;48,49
1888,00;48,52
1876,00;48,52
1864,00;48,54
1852,00;48,56
1840,00;48,58
1828,00;48,56
1816,00;48,60
1804,00;48,54
1792,00;48,54
1780,00;48,52
1768,00;48,46
1756,00;48,37
1744,00;48,23
1732,00;48,08
1720,00;47,76
1708,00;47,43
1696,00;47,13
1684,00;46,74
1672,00;46,41
1660,00;46,20
1648,00;45,89
1636,00;45,63
1624,00;45,48
1612,00;45,55
1600,00;45,78
1588,00;46,05
1576,00;46,28
1564,00;46,49
1552,00;46,71
1540,00;46,87
1528,00;47,10
1516,00;47,26
1504,00;47,41
1492,00;47,45
1480,00;47,41
1468,00;47,09
1456,00;46,66
1444,00;46,58
1432,00;46,62
1420,00;46,67
1408,00;46,77
1396,00;46,86
1384,00;46,82
1372,00;46,69
1360,00;46,79
1348,00;46,93
1336,00;47,18
1324,00;47,34
1312,00;47,39
1300,00;47,49
1288,00;47,52
1276,00;47,39
1264,00;46,92
1252,00;46,44
1240,00;45,66
1228,00;44,79
1216,00;44,08
1204,00;43,55
1192,00;43,14
1180,00;42,77
1168,00;42,31
1156,00;41,70
1144,00;40,98
1132,00;40,30
1120,00;39,81
1108,00;39,76
1096,00;39,94
1084,00;40,12
1072,00;40,20
1060,00;40,34
1048,00;40,58
1036,00;41,10
1024,00;41,96
1012,00;42,43
1000,00;42,60
988,00;42,72
976,00;42,71
964,00;42,56
952,00;42,20
940,00;41,89
928,00;42,11
916,00;42,29
904,00;42,30
892,00;42,40
880,00;42,51
868,00;42,62
856,00;42,79
844,00;42,89
832,00;42,87
820,00;42,62
808,00;42,20
796,00;41,72
784,00;41,00
772,00;40,13
760,00;39,22
748,00;38,44
736,00;37,79
724,00;37,21
712,00;36,67
700,00;36,14
688,00;35,68
676,00;35,02
664,00;34,29
652,00;33,51
640,00;32,74
628,00;31,92
616,00;31,14
604,00;30,41
592,00;29,82
580,00;29,42
568,00;29,23
556,00;29,35
544,00;29,31
532,00;28,51
520,00;27,71
508,00;26,12
500,00;24,54