File: FTIR/LNB_28-10-2024/MoS2 pristine_1.csv
Criado como novo conjunto de dados;Amostra 001 por Analyst data segunda-feira, outubro 28 2024
cm-1;%T
4000,00;33,35
3988,00;33,34
3976,00;33,37
3964,00;33,37
3952,00;33,46
3940,00;33,42
3928,00;33,52
3916,00;33,40
3904,00;33,97
3892,00;33,53
3880,00;33,52
3868,00;33,98
3856,00;34,18
3844,00;33,72
3832,00;33,59
3820,00;34,08
3808,00;33,57
3796,00;33,48
3784,00;33,51
3772,00;33,58
3760,00;33,69
3748,00;34,54
3736,00;34,43
3724,00;33,88
3712,00;34,01
3700,00;33,55
3688,00;33,78
3676,00;34,09
3664,00;33,18
3652,00;33,98
3640,00;33,14
3628,00;33,34
3616,00;33,50
3604,00;32,86
3592,00;32,90
3580,00;32,50
3568,00;32,91
3556,00;32,25
3544,00;32,24
3532,00;32,01
3520,00;31,88
3508,00;31,82
3496,00;31,69
3484,00;31,61
3472,00;31,48
3460,00;31,40
3448,00;31,37
3436,00;31,24
3424,00;31,16
3412,00;31,08
3400,00;31,05
3388,00;30,94
3376,00;30,90
3364,00;30,87
3352,00;30,84
3340,00;30,80
3328,00;30,75
3316,00;30,69
3304,00;30,67
3292,00;30,65
3280,00;30,58
3268,00;30,53
3256,00;30,52
3244,00;30,47
3232,00;30,44
3220,00;30,40
3208,00;30,35
3196,00;30,32
3184,00;30,29
3172,00;30,25
3160,00;30,23
3148,00;30,21
3136,00;30,20
3124,00;30,21
3112,00;30,17
3100,00;30,17
3088,00;30,13
3076,00;30,09
3064,00;30,08
3052,00;30,06
3040,00;30,03
3028,00;30,01
3016,00;30,03
3004,00;29,97
2992,00;29,97
2980,00;29,97
2968,00;29,93
2956,00;29,86
2944,00;29,87
2932,00;29,87
2920,00;29,74
2908,00;29,71
2896,00;29,76
2884,00;29,77
2872,00;29,80
2860,00;29,80
2848,00;29,75
2836,00;29,77
2824,00;29,80
2812,00;29,82
2800,00;29,83
2788,00;29,83
2776,00;29,84
2764,00;29,84
2752,00;29,85
2740,00;29,85
2728,00;29,86
2716,00;29,85
2704,00;29,85
2692,00;29,85
2680,00;29,85
2668,00;29,84
2656,00;29,87
2644,00;29,88
2632,00;29,87
2620,00;29,86
2608,00;29,84
2596,00;29,82
2584,00;29,81
2572,00;29,79
2560,00;29,77
2548,00;29,75
2536,00;29,73
2524,00;29,71
2512,00;29,68
2500,00;29,66
2488,00;29,64
2476,00;29,62
2464,00;29,60
2452,00;29,58
2440,00;29,56
2428,00;29,54
2416,00;29,51
2404,00;29,48
2392,00;29,45
2380,00;29,67
2368,00;29,77
2356,00;29,68
2344,00;29,72
2332,00;29,48
2320,00;29,29
2308,00;29,34
2296,00;29,41
2284,00;29,38
2272,00;29,35
2260,00;29,32
2248,00;29,26
2236,00;29,25
2224,00;29,23
2212,00;29,21
2200,00;29,19
2188,00;29,20
2176,00;29,16
2164,00;29,25
2152,00;29,02
2140,00;29,03
2128,00;29,00
2116,00;29,06
2104,00;29,07
2092,00;29,04
2080,00;29,11
2068,00;29,12
2056,00;29,13
2044,00;29,18
2032,00;29,14
2020,00;29,12
2008,00;29,09
1996,00;29,10
1984,00;29,18
1972,00;29,08
1960,00;29,08
1948,00;29,09
1936,00;29,05
1924,00;29,09
1912,00;29,10
1900,00;29,09
1888,00;29,10
1876,00;29,10
1864,00;29,09
1852,00;29,14
1840,00;29,13
1828,00;29,21
1816,00;29,09
1804,00;29,19
1792,00;29,16
1780,00;29,21
1768,00;29,09
1756,00;29,16
1744,00;29,22
1732,00;29,24
1720,00;29,13
1708,00;29,18
1696,00;29,00
1684,00;29,26
1672,00;29,16
1660,00;29,07
1648,00;29,17
1636,00;29,01
1624,00;29,03
1612,00;29,09
1600,00;29,20
1588,00;29,31
1576,00;29,51
1564,00;29,64
1552,00;29,73
1540,00;29,85
1528,00;29,96
1516,00;30,00
1504,00;30,11
1492,00;30,19
1480,00;30,20
1468,00;30,16
1456,00;30,10
1444,00;30,21
1432,00;30,33
1420,00;30,36
1408,00;30,42
1396,00;30,45
1384,00;30,46
1372,00;30,48
1360,00;30,49
1348,00;30,55
1336,00;30,55
1324,00;30,60
1312,00;30,63
1300,00;30,66
1288,00;30,69
1276,00;30,68
1264,00;30,56
1252,00;30,37
1240,00;30,07
1228,00;29,68
1216,00;29,35
1204,00;29,07
1192,00;28,83
1180,00;28,63
1168,00;28,49
1156,00;28,41
1144,00;28,34
1132,00;28,32
1120,00;28,36
1108,00;28,48
1096,00;28,66
1084,00;28,84
1072,00;28,93
1060,00;28,79
1048,00;28,56
1036,00;28,65
1024,00;29,19
1012,00;29,78
1000,00;30,17
988,00;30,14
976,00;30,10
964,00;30,07
952,00;29,86
940,00;30,01
928,00;30,01
916,00;29,77
904,00;29,85
892,00;30,05
880,00;30,24
868,00;30,47
856,00;30,71
844,00;30,88
832,00;30,93
820,00;30,81
808,00;30,76
796,00;30,63
784,00;30,50
772,00;30,46
760,00;30,36
748,00;30,40
736,00;30,55
724,00;30,68
712,00;30,86
700,00;31,00
688,00;31,21
676,00;31,07
664,00;30,74
652,00;30,98
640,00;30,90
628,00;30,41
616,00;30,34
604,00;30,03
592,00;29,97
580,00;30,26
568,00;30,62
556,00;30,94
544,00;31,24
532,00;31,32
520,00;30,71
508,00;30,90
500,00;32,57