File: FTIR/LNB_28-10-2024/MoS2(1)-3H.csv
Criado como novo conjunto de dados;Amostra 005 por Analyst data segunda-feira, outubro 28 2024
cm-1;%T
4000,00;30,92
3988,00;30,90
3976,00;30,90
3964,00;30,90
3952,00;30,89
3940,00;30,84
3928,00;30,82
3916,00;30,80
3904,00;30,81
3892,00;30,78
3880,00;30,68
3868,00;30,76
3856,00;30,75
3844,00;30,83
3832,00;30,70
3820,00;30,76
3808,00;30,87
3796,00;30,72
3784,00;30,90
3772,00;30,92
3760,00;30,87
3748,00;30,79
3736,00;30,83
3724,00;30,86
3712,00;30,92
3700,00;30,89
3688,00;30,82
3676,00;30,82
3664,00;30,81
3652,00;30,76
3640,00;30,73
3628,00;30,52
3616,00;30,46
3604,00;30,38
3592,00;30,28
3580,00;30,22
3568,00;30,14
3556,00;30,04
3544,00;29,90
3532,00;29,87
3520,00;29,73
3508,00;29,68
3496,00;29,61
3484,00;29,54
3472,00;29,47
3460,00;29,38
3448,00;29,32
3436,00;29,25
3424,00;29,18
3412,00;29,12
3400,00;29,08
3388,00;28,99
3376,00;28,95
3364,00;28,88
3352,00;28,84
3340,00;28,78
3328,00;28,71
3316,00;28,62
3304,00;28,55
3292,00;28,46
3280,00;28,35
3268,00;28,26
3256,00;28,20
3244,00;28,12
3232,00;28,08
3220,00;28,04
3208,00;28,01
3196,00;28,00
3184,00;28,01
3172,00;28,02
3160,00;28,04
3148,00;28,06
3136,00;28,09
3124,00;28,10
3112,00;28,09
3100,00;28,09
3088,00;28,08
3076,00;28,04
3064,00;28,02
3052,00;28,03
3040,00;28,04
3028,00;28,05
3016,00;28,10
3004,00;28,12
2992,00;28,16
2980,00;28,19
2968,00;28,15
2956,00;28,06
2944,00;28,05
2932,00;28,06
2920,00;27,82
2908,00;27,78
2896,00;27,94
2884,00;28,02
2872,00;28,07
2860,00;28,07
2848,00;28,00
2836,00;28,08
2824,00;28,18
2812,00;28,24
2800,00;28,29
2788,00;28,33
2776,00;28,37
2764,00;28,39
2752,00;28,41
2740,00;28,44
2728,00;28,46
2716,00;28,48
2704,00;28,49
2692,00;28,51
2680,00;28,53
2668,00;28,53
2656,00;28,57
2644,00;28,62
2632,00;28,67
2620,00;28,70
2608,00;28,73
2596,00;28,75
2584,00;28,76
2572,00;28,77
2560,00;28,78
2548,00;28,78
2536,00;28,78
2524,00;28,78
2512,00;28,77
2500,00;28,77
2488,00;28,77
2476,00;28,75
2464,00;28,75
2452,00;28,75
2440,00;28,75
2428,00;28,74
2416,00;28,74
2404,00;28,73
2392,00;28,73
2380,00;28,86
2368,00;28,85
2356,00;28,51
2344,00;28,81
2332,00;28,63
2320,00;28,62
2308,00;28,66
2296,00;28,70
2284,00;28,73
2272,00;28,76
2260,00;28,76
2248,00;28,78
2236,00;28,80
2224,00;28,80
2212,00;28,80
2200,00;28,82
2188,00;28,80
2176,00;28,79
2164,00;28,81
2152,00;28,84
2140,00;28,82
2128,00;28,80
2116,00;28,79
2104,00;28,80
2092,00;28,84
2080,00;28,85
2068,00;28,88
2056,00;28,90
2044,00;28,95
2032,00;28,98
2020,00;28,99
2008,00;28,99
1996,00;29,00
1984,00;29,03
1972,00;29,08
1960,00;29,07
1948,00;29,06
1936,00;29,08
1924,00;29,09
1912,00;29,12
1900,00;29,13
1888,00;29,13
1876,00;29,17
1864,00;29,15
1852,00;29,22
1840,00;29,21
1828,00;29,23
1816,00;29,25
1804,00;29,26
1792,00;29,26
1780,00;29,25
1768,00;29,20
1756,00;29,20
1744,00;29,08
1732,00;29,04
1720,00;28,85
1708,00;28,73
1696,00;28,50
1684,00;28,46
1672,00;28,29
1660,00;28,14
1648,00;28,01
1636,00;28,00
1624,00;28,00
1612,00;28,05
1600,00;28,17
1588,00;28,33
1576,00;28,48
1564,00;28,57
1552,00;28,70
1540,00;28,71
1528,00;28,89
1516,00;28,88
1504,00;28,99
1492,00;29,09
1480,00;29,04
1468,00;28,73
1456,00;28,30
1444,00;28,10
1432,00;27,90
1420,00;27,92
1408,00;28,18
1396,00;28,45
1384,00;28,70
1372,00;28,77
1360,00;28,88
1348,00;29,04
1336,00;29,13
1324,00;29,28
1312,00;29,33
1300,00;29,41
1288,00;29,43
1276,00;29,34
1264,00;28,89
1252,00;28,47
1240,00;27,90
1228,00;27,36
1216,00;26,97
1204,00;26,72
1192,00;26,50
1180,00;26,23
1168,00;25,89
1156,00;25,66
1144,00;25,27
1132,00;24,95
1120,00;24,81
1108,00;24,91
1096,00;25,18
1084,00;25,38
1072,00;25,39
1060,00;25,27
1048,00;25,53
1036,00;25,96
1024,00;26,42
1012,00;26,69
1000,00;26,80
988,00;26,65
976,00;26,28
964,00;26,26
952,00;26,18
940,00;26,58
928,00;27,07
916,00;27,17
904,00;27,27
892,00;27,44
880,00;27,51
868,00;27,68
856,00;27,94
844,00;28,10
832,00;28,14
820,00;27,96
808,00;27,66
796,00;27,30
784,00;26,77
772,00;26,12
760,00;25,42
748,00;24,88
736,00;24,41
724,00;23,97
712,00;23,60
700,00;23,26
688,00;22,87
676,00;22,12
664,00;21,33
652,00;20,73
640,00;19,89
628,00;18,96
616,00;18,27
604,00;17,72
592,00;17,28
580,00;17,08
568,00;16,78
556,00;16,47
544,00;16,07
532,00;15,80
520,00;15,97
508,00;15,54
500,00;15,22