File: FTIR/LNB_28-10-2024/MoS2(1)-1H.csv
Criado como novo conjunto de dados;Amostra 002 por Analyst data segunda-feira, outubro 28 2024
cm-1;%T
4000,00;48,51
3988,00;48,52
3976,00;48,56
3964,00;48,57
3952,00;48,70
3940,00;48,72
3928,00;48,89
3916,00;48,78
3904,00;49,59
3892,00;49,01
3880,00;49,01
3868,00;49,61
3856,00;50,21
3844,00;49,23
3832,00;49,22
3820,00;49,71
3808,00;49,23
3796,00;48,99
3784,00;48,92
3772,00;49,13
3760,00;49,30
3748,00;50,65
3736,00;50,39
3724,00;49,57
3712,00;49,88
3700,00;49,07
3688,00;49,57
3676,00;50,12
3664,00;48,60
3652,00;49,94
3640,00;48,57
3628,00;49,13
3616,00;49,35
3604,00;48,47
3592,00;48,58
3580,00;48,06
3568,00;48,69
3556,00;47,87
3544,00;47,94
3532,00;47,66
3520,00;47,56
3508,00;47,49
3496,00;47,34
3484,00;47,31
3472,00;47,16
3460,00;47,10
3448,00;47,08
3436,00;46,94
3424,00;46,87
3412,00;46,80
3400,00;46,79
3388,00;46,68
3376,00;46,62
3364,00;46,59
3352,00;46,52
3340,00;46,45
3328,00;46,34
3316,00;46,22
3304,00;46,14
3292,00;46,04
3280,00;45,89
3268,00;45,78
3256,00;45,72
3244,00;45,63
3232,00;45,58
3220,00;45,54
3208,00;45,53
3196,00;45,55
3184,00;45,58
3172,00;45,62
3160,00;45,69
3148,00;45,76
3136,00;45,83
3124,00;45,91
3112,00;45,93
3100,00;45,96
3088,00;45,94
3076,00;45,93
3064,00;45,93
3052,00;45,94
3040,00;45,96
3028,00;46,01
3016,00;46,09
3004,00;46,10
2992,00;46,18
2980,00;46,23
2968,00;46,23
2956,00;46,21
2944,00;46,30
2932,00;46,34
2920,00;46,25
2908,00;46,23
2896,00;46,32
2884,00;46,35
2872,00;46,41
2860,00;46,42
2848,00;46,37
2836,00;46,41
2824,00;46,47
2812,00;46,52
2800,00;46,56
2788,00;46,60
2776,00;46,64
2764,00;46,65
2752,00;46,69
2740,00;46,71
2728,00;46,73
2716,00;46,74
2704,00;46,75
2692,00;46,76
2680,00;46,79
2668,00;46,79
2656,00;46,83
2644,00;46,88
2632,00;46,93
2620,00;46,96
2608,00;46,99
2596,00;47,01
2584,00;47,03
2572,00;47,04
2560,00;47,05
2548,00;47,05
2536,00;47,06
2524,00;47,06
2512,00;47,07
2500,00;47,06
2488,00;47,06
2476,00;47,07
2464,00;47,06
2452,00;47,06
2440,00;47,06
2428,00;47,05
2416,00;47,06
2404,00;47,06
2392,00;47,05
2380,00;47,28
2368,00;47,25
2356,00;47,28
2344,00;46,74
2332,00;47,13
2320,00;46,80
2308,00;47,01
2296,00;47,09
2284,00;47,19
2272,00;47,23
2260,00;47,24
2248,00;47,25
2236,00;47,26
2224,00;47,28
2212,00;47,30
2200,00;47,32
2188,00;47,33
2176,00;47,38
2164,00;47,40
2152,00;47,42
2140,00;47,41
2128,00;47,35
2116,00;47,35
2104,00;47,38
2092,00;47,40
2080,00;47,46
2068,00;47,52
2056,00;47,56
2044,00;47,69
2032,00;47,74
2020,00;47,77
2008,00;47,74
1996,00;47,73
1984,00;47,76
1972,00;47,84
1960,00;47,82
1948,00;47,82
1936,00;47,81
1924,00;47,87
1912,00;47,86
1900,00;47,87
1888,00;47,90
1876,00;47,91
1864,00;47,94
1852,00;48,00
1840,00;48,01
1828,00;48,12
1816,00;48,04
1804,00;48,13
1792,00;48,13
1780,00;48,17
1768,00;48,08
1756,00;48,16
1744,00;48,20
1732,00;48,15
1720,00;48,04
1708,00;48,01
1696,00;47,79
1684,00;47,95
1672,00;47,76
1660,00;47,60
1648,00;47,77
1636,00;47,82
1624,00;47,91
1612,00;47,97
1600,00;48,11
1588,00;48,23
1576,00;48,43
1564,00;48,56
1552,00;48,65
1540,00;48,77
1528,00;48,89
1516,00;48,95
1504,00;49,05
1492,00;49,13
1480,00;49,10
1468,00;48,96
1456,00;48,77
1444,00;48,71
1432,00;48,69
1420,00;48,71
1408,00;48,94
1396,00;49,15
1384,00;49,30
1372,00;49,41
1360,00;49,47
1348,00;49,58
1336,00;49,64
1324,00;49,74
1312,00;49,79
1300,00;49,87
1288,00;49,92
1276,00;49,89
1264,00;49,72
1252,00;49,58
1240,00;49,39
1228,00;49,22
1216,00;49,12
1204,00;49,05
1192,00;49,02
1180,00;49,03
1168,00;49,06
1156,00;49,11
1144,00;49,11
1132,00;49,13
1120,00;49,18
1108,00;49,26
1096,00;49,42
1084,00;49,45
1072,00;49,43
1060,00;49,31
1048,00;49,30
1036,00;49,38
1024,00;49,70
1012,00;50,07
1000,00;50,24
988,00;50,23
976,00;50,11
964,00;50,08
952,00;50,06
940,00;50,30
928,00;50,52
916,00;50,38
904,00;50,32
892,00;50,37
880,00;50,40
868,00;50,53
856,00;50,72
844,00;50,86
832,00;50,95
820,00;50,86
808,00;50,72
796,00;50,59
784,00;50,37
772,00;50,13
760,00;49,79
748,00;49,60
736,00;49,49
724,00;49,33
712,00;49,27
700,00;49,20
688,00;49,05
676,00;48,58
664,00;47,70
652,00;47,68
640,00;47,22
628,00;46,52
616,00;46,20
604,00;45,80
592,00;45,59
580,00;45,41
568,00;45,07
556,00;44,48
544,00;43,78
532,00;43,70
520,00;43,95
508,00;44,42
500,00;43,34