File: FTIR/LNB_28-10-2024/MoS2(1)-1H_1.csv
Criado como novo conjunto de dados;Amostra 003 por Analyst data segunda-feira, outubro 28 2024
cm-1;%T
4000,00;25,79
3988,00;25,79
3976,00;25,82
3964,00;25,82
3952,00;25,91
3940,00;25,89
3928,00;25,99
3916,00;25,89
3904,00;26,40
3892,00;26,01
3880,00;26,00
3868,00;26,43
3856,00;26,67
3844,00;26,20
3832,00;26,11
3820,00;26,52
3808,00;26,11
3796,00;26,00
3784,00;26,04
3772,00;26,12
3760,00;26,21
3748,00;26,97
3736,00;26,85
3724,00;26,34
3712,00;26,48
3700,00;26,07
3688,00;26,28
3676,00;26,58
3664,00;25,76
3652,00;26,52
3640,00;25,75
3628,00;25,93
3616,00;26,09
3604,00;25,56
3592,00;25,59
3580,00;25,26
3568,00;25,63
3556,00;25,09
3544,00;25,09
3532,00;24,90
3520,00;24,81
3508,00;24,76
3496,00;24,66
3484,00;24,62
3472,00;24,52
3460,00;24,47
3448,00;24,46
3436,00;24,36
3424,00;24,30
3412,00;24,25
3400,00;24,25
3388,00;24,15
3376,00;24,12
3364,00;24,11
3352,00;24,06
3340,00;24,03
3328,00;23,96
3316,00;23,88
3304,00;23,86
3292,00;23,81
3280,00;23,70
3268,00;23,64
3256,00;23,61
3244,00;23,55
3232,00;23,52
3220,00;23,48
3208,00;23,46
3196,00;23,46
3184,00;23,46
3172,00;23,47
3160,00;23,50
3148,00;23,53
3136,00;23,56
3124,00;23,60
3112,00;23,60
3100,00;23,61
3088,00;23,59
3076,00;23,57
3064,00;23,56
3052,00;23,56
3040,00;23,57
3028,00;23,56
3016,00;23,61
3004,00;23,57
2992,00;23,60
2980,00;23,62
2968,00;23,58
2956,00;23,51
2944,00;23,57
2932,00;23,57
2920,00;23,40
2908,00;23,39
2896,00;23,52
2884,00;23,57
2872,00;23,65
2860,00;23,66
2848,00;23,63
2836,00;23,71
2824,00;23,79
2812,00;23,85
2800,00;23,89
2788,00;23,93
2776,00;23,96
2764,00;23,98
2752,00;24,01
2740,00;24,03
2728,00;24,06
2716,00;24,08
2704,00;24,10
2692,00;24,11
2680,00;24,14
2668,00;24,15
2656,00;24,20
2644,00;24,23
2632,00;24,26
2620,00;24,28
2608,00;24,30
2596,00;24,31
2584,00;24,31
2572,00;24,31
2560,00;24,32
2548,00;24,32
2536,00;24,33
2524,00;24,32
2512,00;24,32
2500,00;24,31
2488,00;24,31
2476,00;24,31
2464,00;24,31
2452,00;24,31
2440,00;24,31
2428,00;24,30
2416,00;24,29
2404,00;24,29
2392,00;24,28
2380,00;24,51
2368,00;24,74
2356,00;24,43
2344,00;24,60
2332,00;24,39
2320,00;24,36
2308,00;24,37
2296,00;24,40
2284,00;24,40
2272,00;24,41
2260,00;24,40
2248,00;24,40
2236,00;24,38
2224,00;24,43
2212,00;24,42
2200,00;24,44
2188,00;24,46
2176,00;24,46
2164,00;24,52
2152,00;24,40
2140,00;24,39
2128,00;24,35
2116,00;24,40
2104,00;24,44
2092,00;24,43
2080,00;24,50
2068,00;24,54
2056,00;24,58
2044,00;24,65
2032,00;24,68
2020,00;24,65
2008,00;24,67
1996,00;24,64
1984,00;24,72
1972,00;24,71
1960,00;24,66
1948,00;24,67
1936,00;24,63
1924,00;24,67
1912,00;24,67
1900,00;24,68
1888,00;24,69
1876,00;24,70
1864,00;24,70
1852,00;24,73
1840,00;24,73
1828,00;24,80
1816,00;24,72
1804,00;24,78
1792,00;24,76
1780,00;24,79
1768,00;24,68
1756,00;24,71
1744,00;24,69
1732,00;24,66
1720,00;24,48
1708,00;24,43
1696,00;24,22
1684,00;24,33
1672,00;24,17
1660,00;24,02
1648,00;24,07
1636,00;23,96
1624,00;23,96
1612,00;23,98
1600,00;24,06
1588,00;24,16
1576,00;24,33
1564,00;24,42
1552,00;24,50
1540,00;24,57
1528,00;24,67
1516,00;24,68
1504,00;24,76
1492,00;24,78
1480,00;24,71
1468,00;24,49
1456,00;24,21
1444,00;24,14
1432,00;24,11
1420,00;24,12
1408,00;24,28
1396,00;24,43
1384,00;24,52
1372,00;24,55
1360,00;24,59
1348,00;24,66
1336,00;24,66
1324,00;24,68
1312,00;24,65
1300,00;24,62
1288,00;24,56
1276,00;24,43
1264,00;24,14
1252,00;23,89
1240,00;23,58
1228,00;23,28
1216,00;23,07
1204,00;22,90
1192,00;22,75
1180,00;22,60
1168,00;22,45
1156,00;22,35
1144,00;22,21
1132,00;22,10
1120,00;22,08
1108,00;22,15
1096,00;22,34
1084,00;22,46
1072,00;22,54
1060,00;22,53
1048,00;22,62
1036,00;22,79
1024,00;23,19
1012,00;23,57
1000,00;23,69
988,00;23,53
976,00;23,29
964,00;23,23
952,00;23,14
940,00;23,38
928,00;23,62
916,00;23,54
904,00;23,57
892,00;23,68
880,00;23,72
868,00;23,83
856,00;24,01
844,00;24,13
832,00;24,16
820,00;23,99
808,00;23,78
796,00;23,59
784,00;23,37
772,00;23,11
760,00;22,73
748,00;22,48
736,00;22,29
724,00;22,07
712,00;21,94
700,00;21,85
688,00;21,68
676,00;21,28
664,00;20,79
652,00;20,54
640,00;20,12
628,00;19,46
616,00;18,97
604,00;18,51
592,00;18,29
580,00;18,04
568,00;17,79
556,00;17,54
544,00;17,12
532,00;16,93
520,00;16,54
508,00;16,23
500,00;16,01