File: FTIR/LNB_28-10-2024/MoS2(1)-10H.csv
Criado como novo conjunto de dados;Amostra 008 por Analyst data segunda-feira, outubro 28 2024
cm-1;%T
4000,00;34,98
3988,00;34,97
3976,00;34,98
3964,00;34,98
3952,00;34,99
3940,00;34,95
3928,00;34,95
3916,00;34,93
3904,00;34,96
3892,00;34,94
3880,00;34,87
3868,00;34,94
3856,00;34,94
3844,00;35,03
3832,00;34,94
3820,00;35,01
3808,00;35,09
3796,00;35,00
3784,00;35,15
3772,00;35,18
3760,00;35,17
3748,00;35,12
3736,00;35,20
3724,00;35,23
3712,00;35,30
3700,00;35,28
3688,00;35,22
3676,00;35,23
3664,00;35,21
3652,00;35,16
3640,00;35,10
3628,00;34,91
3616,00;34,78
3604,00;34,66
3592,00;34,50
3580,00;34,36
3568,00;34,24
3556,00;34,08
3544,00;33,88
3532,00;33,82
3520,00;33,65
3508,00;33,55
3496,00;33,44
3484,00;33,35
3472,00;33,25
3460,00;33,14
3448,00;33,06
3436,00;32,97
3424,00;32,88
3412,00;32,81
3400,00;32,75
3388,00;32,67
3376,00;32,63
3364,00;32,58
3352,00;32,55
3340,00;32,52
3328,00;32,48
3316,00;32,45
3304,00;32,42
3292,00;32,39
3280,00;32,35
3268,00;32,32
3256,00;32,29
3244,00;32,25
3232,00;32,23
3220,00;32,20
3208,00;32,19
3196,00;32,18
3184,00;32,19
3172,00;32,19
3160,00;32,21
3148,00;32,22
3136,00;32,23
3124,00;32,25
3112,00;32,25
3100,00;32,27
3088,00;32,27
3076,00;32,27
3064,00;32,27
3052,00;32,29
3040,00;32,31
3028,00;32,32
3016,00;32,36
3004,00;32,37
2992,00;32,39
2980,00;32,39
2968,00;32,36
2956,00;32,27
2944,00;32,25
2932,00;32,28
2920,00;32,02
2908,00;31,90
2896,00;32,13
2884,00;32,26
2872,00;32,35
2860,00;32,38
2848,00;32,34
2836,00;32,42
2824,00;32,55
2812,00;32,63
2800,00;32,70
2788,00;32,75
2776,00;32,79
2764,00;32,82
2752,00;32,87
2740,00;32,91
2728,00;32,94
2716,00;32,97
2704,00;33,01
2692,00;33,04
2680,00;33,07
2668,00;33,10
2656,00;33,15
2644,00;33,23
2632,00;33,31
2620,00;33,37
2608,00;33,42
2596,00;33,47
2584,00;33,50
2572,00;33,52
2560,00;33,56
2548,00;33,58
2536,00;33,60
2524,00;33,60
2512,00;33,62
2500,00;33,62
2488,00;33,64
2476,00;33,64
2464,00;33,65
2452,00;33,66
2440,00;33,67
2428,00;33,69
2416,00;33,70
2404,00;33,70
2392,00;33,69
2380,00;33,78
2368,00;33,71
2356,00;33,66
2344,00;33,79
2332,00;33,53
2320,00;33,52
2308,00;33,67
2296,00;33,74
2284,00;33,77
2272,00;33,86
2260,00;33,86
2248,00;33,89
2236,00;33,89
2224,00;33,91
2212,00;33,93
2200,00;33,96
2188,00;33,95
2176,00;34,00
2164,00;33,99
2152,00;34,09
2140,00;34,06
2128,00;34,04
2116,00;34,01
2104,00;34,03
2092,00;34,07
2080,00;34,09
2068,00;34,14
2056,00;34,18
2044,00;34,23
2032,00;34,30
2020,00;34,35
2008,00;34,35
1996,00;34,36
1984,00;34,37
1972,00;34,51
1960,00;34,53
1948,00;34,52
1936,00;34,53
1924,00;34,54
1912,00;34,58
1900,00;34,60
1888,00;34,63
1876,00;34,68
1864,00;34,68
1852,00;34,76
1840,00;34,77
1828,00;34,80
1816,00;34,84
1804,00;34,86
1792,00;34,86
1780,00;34,86
1768,00;34,81
1756,00;34,78
1744,00;34,63
1732,00;34,55
1720,00;34,31
1708,00;34,08
1696,00;33,75
1684,00;33,55
1672,00;33,31
1660,00;33,13
1648,00;32,89
1636,00;32,75
1624,00;32,69
1612,00;32,78
1600,00;33,01
1588,00;33,26
1576,00;33,46
1564,00;33,64
1552,00;33,83
1540,00;33,91
1528,00;34,14
1516,00;34,21
1504,00;34,36
1492,00;34,44
1480,00;34,40
1468,00;34,11
1456,00;33,73
1444,00;33,66
1432,00;33,62
1420,00;33,69
1408,00;33,85
1396,00;33,98
1384,00;34,05
1372,00;34,01
1360,00;34,07
1348,00;34,23
1336,00;34,40
1324,00;34,55
1312,00;34,60
1300,00;34,66
1288,00;34,65
1276,00;34,47
1264,00;33,91
1252,00;33,41
1240,00;32,63
1228,00;31,82
1216,00;31,16
1204,00;30,66
1192,00;30,30
1180,00;30,03
1168,00;29,67
1156,00;29,23
1144,00;28,70
1132,00;28,26
1120,00;27,96
1108,00;28,02
1096,00;28,26
1084,00;28,45
1072,00;28,56
1060,00;28,69
1048,00;28,88
1036,00;29,49
1024,00;30,31
1012,00;30,77
1000,00;30,91
988,00;30,88
976,00;30,58
964,00;30,50
952,00;30,41
940,00;30,46
928,00;30,91
916,00;31,17
904,00;31,26
892,00;31,37
880,00;31,38
868,00;31,51
856,00;31,76
844,00;31,89
832,00;31,86
820,00;31,48
808,00;30,81
796,00;29,90
784,00;28,62
772,00;27,19
760,00;25,86
748,00;24,74
736,00;23,82
724,00;22,92
712,00;22,12
700,00;21,36
688,00;20,63
676,00;19,71
664,00;18,64
652,00;17,63
640,00;16,52
628,00;15,57
616,00;14,84
604,00;14,33
592,00;13,82
580,00;13,49
568,00;13,13
556,00;13,05
544,00;12,88
532,00;12,61
520,00;11,95
508,00;10,90
500,00;11,16