File: FTIR/LNB_28-10-2024/MoS2-NS-Sódio.csv
Criado como novo conjunto de dados;Amostra 020 por Analyst data segunda-feira, outubro 28 2024
cm-1;%T
4000,00;45,28
3988,00;45,32
3976,00;45,37
3964,00;45,41
3952,00;45,51
3940,00;45,52
3928,00;45,63
3916,00;45,60
3904,00;45,95
3892,00;45,80
3880,00;45,84
3868,00;46,14
3856,00;46,33
3844,00;46,21
3832,00;46,20
3820,00;46,53
3808,00;46,40
3796,00;46,46
3784,00;46,62
3772,00;46,76
3760,00;46,94
3748,00;47,48
3736,00;47,56
3724,00;47,42
3712,00;47,70
3700,00;47,62
3688,00;47,92
3676,00;48,28
3664,00;48,04
3652,00;48,51
3640,00;48,16
3628,00;48,07
3616,00;47,88
3604,00;47,20
3592,00;46,81
3580,00;46,23
3568,00;46,12
3556,00;45,52
3544,00;45,24
3532,00;44,99
3520,00;44,74
3508,00;44,57
3496,00;44,29
3484,00;44,12
3472,00;43,88
3460,00;43,67
3448,00;43,52
3436,00;43,23
3424,00;43,11
3412,00;42,91
3400,00;42,76
3388,00;42,66
3376,00;42,59
3364,00;42,54
3352,00;42,50
3340,00;42,49
3328,00;42,48
3316,00;42,45
3304,00;42,41
3292,00;42,34
3280,00;42,22
3268,00;42,12
3256,00;42,05
3244,00;41,93
3232,00;41,83
3220,00;41,71
3208,00;41,63
3196,00;41,61
3184,00;41,67
3172,00;41,75
3160,00;41,87
3148,00;42,00
3136,00;42,14
3124,00;42,28
3112,00;42,39
3100,00;42,50
3088,00;42,57
3076,00;42,63
3064,00;42,69
3052,00;42,76
3040,00;42,83
3028,00;42,92
3016,00;43,05
3004,00;43,15
2992,00;43,27
2980,00;43,23
2968,00;42,87
2956,00;42,90
2944,00;43,17
2932,00;43,26
2920,00;43,20
2908,00;43,24
2896,00;43,37
2884,00;43,45
2872,00;43,54
2860,00;43,62
2848,00;43,70
2836,00;43,82
2824,00;43,92
2812,00;44,05
2800,00;44,17
2788,00;44,29
2776,00;44,41
2764,00;44,52
2752,00;44,64
2740,00;44,75
2728,00;44,87
2716,00;44,97
2704,00;45,08
2692,00;45,19
2680,00;45,31
2668,00;45,40
2656,00;45,55
2644,00;45,78
2632,00;46,00
2620,00;46,18
2608,00;46,34
2596,00;46,49
2584,00;46,62
2572,00;46,76
2560,00;46,87
2548,00;46,98
2536,00;47,09
2524,00;47,19
2512,00;47,29
2500,00;47,37
2488,00;47,47
2476,00;47,56
2464,00;47,64
2452,00;47,75
2440,00;47,84
2428,00;47,94
2416,00;48,02
2404,00;48,11
2392,00;48,17
2380,00;48,40
2368,00;48,60
2356,00;48,24
2344,00;48,39
2332,00;48,47
2320,00;48,53
2308,00;48,73
2296,00;48,92
2284,00;49,06
2272,00;49,23
2260,00;49,34
2248,00;49,46
2236,00;49,57
2224,00;49,69
2212,00;49,80
2200,00;49,88
2188,00;49,97
2176,00;50,12
2164,00;50,19
2152,00;50,38
2140,00;50,42
2128,00;50,46
2116,00;50,47
2104,00;50,55
2092,00;50,67
2080,00;50,72
2068,00;50,84
2056,00;50,93
2044,00;51,16
2032,00;51,30
2020,00;51,39
2008,00;51,46
1996,00;51,53
1984,00;51,63
1972,00;51,82
1960,00;51,94
1948,00;52,08
1936,00;52,21
1924,00;52,37
1912,00;52,52
1900,00;52,66
1888,00;52,83
1876,00;52,98
1864,00;53,15
1852,00;53,34
1840,00;53,52
1828,00;53,83
1816,00;53,85
1804,00;54,08
1792,00;54,34
1780,00;54,59
1768,00;54,83
1756,00;55,08
1744,00;55,32
1732,00;55,55
1720,00;55,27
1708,00;54,93
1696,00;54,47
1684,00;53,57
1672,00;51,69
1660,00;49,35
1648,00;47,26
1636,00;44,90
1624,00;42,98
1612,00;41,46
1600,00;41,11
1588,00;41,89
1576,00;42,98
1564,00;43,95
1552,00;45,34
1540,00;46,86
1528,00;47,73
1516,00;48,53
1504,00;49,35
1492,00;49,87
1480,00;49,97
1468,00;49,44
1456,00;48,07
1444,00;46,96
1432,00;46,51
1420,00;46,16
1408,00;46,34
1396,00;47,00
1384,00;46,81
1372,00;46,30
1360,00;46,65
1348,00;47,09
1336,00;47,27
1324,00;47,52
1312,00;47,63
1300,00;47,72
1288,00;47,84
1276,00;48,22
1264,00;48,28
1252,00;48,10
1240,00;47,95
1228,00;48,17
1216,00;48,39
1204,00;48,58
1192,00;49,10
1180,00;49,81
1168,00;50,26
1156,00;50,02
1144,00;50,28
1132,00;50,16
1120,00;49,39
1108,00;49,22
1096,00;49,13
1084,00;49,34
1072,00;49,92
1060,00;50,91
1048,00;51,13
1036,00;51,42
1024,00;51,03
1012,00;52,03
1000,00;53,84
988,00;54,97
976,00;55,50
964,00;54,14
952,00;50,43
940,00;47,28
928,00;47,13
916,00;47,03
904,00;47,15
892,00;47,66
880,00;48,26
868,00;48,20
856,00;48,77
844,00;49,38
832,00;49,66
820,00;49,49
808,00;48,34
796,00;48,27
784,00;48,20
772,00;47,52
760,00;47,03
748,00;46,75
736,00;46,22
724,00;45,50
712,00;44,82
700,00;44,55
688,00;44,30
676,00;43,98
664,00;43,53
652,00;43,20
640,00;42,64
628,00;41,58
616,00;41,10
604,00;41,40
592,00;41,28
580,00;40,95
568,00;40,54
556,00;39,68
544,00;39,16
532,00;39,21
520,00;39,91
508,00;40,90
500,00;39,97