File: FTIR/LNB_28-10-2024/MoS2 pristine.csv
Criado como novo conjunto de dados;Amostra 001 por Analyst data segunda-feira, outubro 28 2024
cm-1;%T
4000,00;25,19
3988,00;25,05
3976,00;27,16
3964,00;24,47
3952,00;26,55
3940,00;26,38
3928,00;24,80
3916,00;27,40
3904,00;25,64
3892,00;26,00
3880,00;27,25
3868,00;25,09
3856,00;27,85
3844,00;26,35
3832,00;25,53
3820,00;28,20
3808,00;25,15
3796,00;26,91
3784,00;27,08
3772,00;25,13
3760,00;28,04
3748,00;26,65
3736,00;26,69
3724,00;27,80
3712,00;25,54
3700,00;27,39
3688,00;26,72
3676,00;26,04
3664,00;27,89
3652,00;25,95
3640,00;26,73
3628,00;27,12
3616,00;25,27
3604,00;27,54
3592,00;25,65
3580,00;25,56
3568,00;27,73
3556,00;24,53
3544,00;26,84
3532,00;26,04
3520,00;24,68
3508,00;27,15
3496,00;24,62
3484,00;25,75
3472,00;26,39
3460,00;24,09
3448,00;26,68
3436,00;25,02
3424,00;24,77
3412,00;26,60
3400,00;24,01
3388,00;25,93
3376,00;25,60
3364,00;24,10
3352,00;26,60
3340,00;24,36
3328,00;25,18
3316,00;26,15
3304,00;23,78
3292,00;26,26
3280,00;24,94
3268,00;24,39
3256,00;26,45
3244,00;23,89
3232,00;25,62
3220,00;25,61
3208,00;23,87
3196,00;26,42
3184,00;24,38
3172,00;24,92
3160,00;26,19
3148,00;23,77
3136,00;26,13
3124,00;25,18
3112,00;24,36
3100,00;26,58
3088,00;24,10
3076,00;25,60
3064,00;25,90
3052,00;23,98
3040,00;26,53
3028,00;24,70
3016,00;24,99
3004,00;26,48
2992,00;24,01
2980,00;26,24
2968,00;25,51
2956,00;24,39
2944,00;26,75
2932,00;24,39
2920,00;25,57
2908,00;26,13
2896,00;24,09
2884,00;26,65
2872,00;25,06
2860,00;25,03
2848,00;26,72
2836,00;24,22
2824,00;26,32
2812,00;25,90
2800,00;24,58
2788,00;27,04
2776,00;24,79
2764,00;25,78
2752,00;26,66
2740,00;24,41
2728,00;26,93
2716,00;25,53
2704,00;25,18
2692,00;27,14
2680,00;24,61
2668,00;26,47
2656,00;26,36
2644,00;24,79
2632,00;27,35
2620,00;25,23
2608,00;25,93
2596,00;27,09
2584,00;24,69
2572,00;27,12
2560,00;25,97
2548,00;25,31
2536,00;27,44
2524,00;24,91
2512,00;26,55
2500,00;26,68
2488,00;24,86
2476,00;27,40
2464,00;25,44
2452,00;25,84
2440,00;27,22
2428,00;24,74
2416,00;27,02
2404,00;26,12
2392,00;25,17
2380,00;26,42
2368,00;27,10
2356,00;27,82
2344,00;27,21
2332,00;26,76
2320,00;26,97
2308,00;23,68
2296,00;24,49
2284,00;27,05
2272,00;24,71
2260,00;26,83
2248,00;26,32
2236,00;25,16
2224,00;27,57
2212,00;25,23
2200,00;26,37
2188,00;27,08
2176,00;24,91
2164,00;27,47
2152,00;25,75
2140,00;25,63
2128,00;27,36
2116,00;24,87
2104,00;26,85
2092,00;26,52
2080,00;25,13
2068,00;27,63
2056,00;25,45
2044,00;26,35
2032,00;27,34
2020,00;25,00
2008,00;27,39
1996,00;26,11
1984,00;25,68
1972,00;27,65
1960,00;25,10
1948,00;26,84
1936,00;26,77
1924,00;25,20
1912,00;27,67
1900,00;25,58
1888,00;26,34
1876,00;27,39
1864,00;25,09
1852,00;27,33
1840,00;26,41
1828,00;25,93
1816,00;27,68
1804,00;25,33
1792,00;27,02
1780,00;27,20
1768,00;25,34
1756,00;27,83
1744,00;26,20
1732,00;26,67
1720,00;27,76
1708,00;25,18
1696,00;27,45
1684,00;26,90
1672,00;25,66
1660,00;27,68
1648,00;25,72
1636,00;26,65
1624,00;27,14
1612,00;24,95
1600,00;27,51
1588,00;25,90
1576,00;26,09
1564,00;27,99
1552,00;25,66
1540,00;28,31
1528,00;27,53
1516,00;26,57
1504,00;28,85
1492,00;26,23
1480,00;27,10
1468,00;27,87
1456,00;26,20
1444,00;28,04
1432,00;26,78
1420,00;26,51
1408,00;28,28
1396,00;26,12
1384,00;27,70
1372,00;27,57
1360,00;26,09
1348,00;28,32
1336,00;26,37
1324,00;26,95
1312,00;28,15
1300,00;25,70
1288,00;28,24
1276,00;26,97
1264,00;26,33
1252,00;28,26
1240,00;25,56
1228,00;27,02
1216,00;26,89
1204,00;25,02
1192,00;27,40
1180,00;25,40
1168,00;25,83
1156,00;27,08
1144,00;24,70
1132,00;26,94
1120,00;26,02
1108,00;25,26
1096,00;27,47
1084,00;25,10
1072,00;26,52
1060,00;26,62
1048,00;24,54
1036,00;27,00
1024,00;25,48
1012,00;26,03
1000,00;27,76
988,00;25,28
976,00;27,41
964,00;26,66
952,00;25,48
940,00;27,83
928,00;25,47
916,00;26,52
904,00;27,03
892,00;25,01
880,00;27,55
868,00;26,02
856,00;26,09
844,00;27,87
832,00;25,39
820,00;27,41
808,00;26,90
796,00;25,54
784,00;27,85
772,00;25,58
760,00;26,54
748,00;27,33
736,00;25,19
724,00;27,71
712,00;26,29
700,00;25,82
688,00;27,79
676,00;25,38
664,00;27,16
652,00;26,61
640,00;24,99
628,00;27,35
616,00;25,00
604,00;25,92
592,00;27,01
580,00;24,88
568,00;27,47
556,00;26,16
544,00;25,79
532,00;27,93
520,00;25,59
508,00;28,00
500,00;30,97