File: FTIR/LNB_28-10-2024/MoS2(1)-4H.csv
Criado como novo conjunto de dados;Amostra 006 por Analyst data segunda-feira, outubro 28 2024
cm-1;%T
4000,00;27,79
3988,00;27,77
3976,00;27,77
3964,00;27,77
3952,00;27,77
3940,00;27,72
3928,00;27,71
3916,00;27,68
3904,00;27,69
3892,00;27,67
3880,00;27,59
3868,00;27,64
3856,00;27,64
3844,00;27,71
3832,00;27,60
3820,00;27,65
3808,00;27,73
3796,00;27,62
3784,00;27,77
3772,00;27,78
3760,00;27,73
3748,00;27,65
3736,00;27,72
3724,00;27,76
3712,00;27,79
3700,00;27,77
3688,00;27,69
3676,00;27,68
3664,00;27,68
3652,00;27,63
3640,00;27,59
3628,00;27,41
3616,00;27,33
3604,00;27,26
3592,00;27,15
3580,00;27,06
3568,00;26,97
3556,00;26,86
3544,00;26,73
3532,00;26,68
3520,00;26,56
3508,00;26,49
3496,00;26,42
3484,00;26,33
3472,00;26,27
3460,00;26,18
3448,00;26,12
3436,00;26,06
3424,00;25,97
3412,00;25,92
3400,00;25,86
3388,00;25,79
3376,00;25,74
3364,00;25,69
3352,00;25,65
3340,00;25,60
3328,00;25,54
3316,00;25,47
3304,00;25,41
3292,00;25,34
3280,00;25,24
3268,00;25,17
3256,00;25,12
3244,00;25,06
3232,00;25,02
3220,00;24,97
3208,00;24,94
3196,00;24,93
3184,00;24,93
3172,00;24,93
3160,00;24,95
3148,00;24,96
3136,00;24,97
3124,00;24,97
3112,00;24,96
3100,00;24,96
3088,00;24,95
3076,00;24,91
3064,00;24,90
3052,00;24,90
3040,00;24,91
3028,00;24,91
3016,00;24,96
3004,00;24,96
2992,00;24,99
2980,00;25,01
2968,00;24,97
2956,00;24,88
2944,00;24,87
2932,00;24,87
2920,00;24,64
2908,00;24,56
2896,00;24,74
2884,00;24,83
2872,00;24,89
2860,00;24,88
2848,00;24,82
2836,00;24,89
2824,00;24,99
2812,00;25,05
2800,00;25,10
2788,00;25,13
2776,00;25,16
2764,00;25,19
2752,00;25,21
2740,00;25,23
2728,00;25,26
2716,00;25,27
2704,00;25,29
2692,00;25,31
2680,00;25,34
2668,00;25,34
2656,00;25,36
2644,00;25,39
2632,00;25,43
2620,00;25,45
2608,00;25,46
2596,00;25,48
2584,00;25,49
2572,00;25,49
2560,00;25,50
2548,00;25,50
2536,00;25,50
2524,00;25,50
2512,00;25,50
2500,00;25,48
2488,00;25,48
2476,00;25,47
2464,00;25,47
2452,00;25,46
2440,00;25,46
2428,00;25,46
2416,00;25,45
2404,00;25,46
2392,00;25,44
2380,00;25,48
2368,00;25,42
2356,00;25,31
2344,00;25,49
2332,00;25,26
2320,00;25,24
2308,00;25,34
2296,00;25,38
2284,00;25,40
2272,00;25,44
2260,00;25,43
2248,00;25,44
2236,00;25,45
2224,00;25,44
2212,00;25,46
2200,00;25,44
2188,00;25,44
2176,00;25,45
2164,00;25,46
2152,00;25,47
2140,00;25,45
2128,00;25,44
2116,00;25,41
2104,00;25,42
2092,00;25,45
2080,00;25,44
2068,00;25,47
2056,00;25,49
2044,00;25,54
2032,00;25,55
2020,00;25,59
2008,00;25,61
1996,00;25,55
1984,00;25,60
1972,00;25,65
1960,00;25,68
1948,00;25,64
1936,00;25,64
1924,00;25,64
1912,00;25,65
1900,00;25,67
1888,00;25,67
1876,00;25,70
1864,00;25,69
1852,00;25,75
1840,00;25,74
1828,00;25,75
1816,00;25,77
1804,00;25,79
1792,00;25,78
1780,00;25,79
1768,00;25,74
1756,00;25,73
1744,00;25,60
1732,00;25,56
1720,00;25,37
1708,00;25,22
1696,00;25,01
1684,00;24,93
1672,00;24,75
1660,00;24,60
1648,00;24,42
1636,00;24,35
1624,00;24,31
1612,00;24,35
1600,00;24,48
1588,00;24,64
1576,00;24,79
1564,00;24,89
1552,00;25,03
1540,00;25,05
1528,00;25,21
1516,00;25,22
1504,00;25,34
1492,00;25,41
1480,00;25,35
1468,00;25,08
1456,00;24,66
1444,00;24,41
1432,00;24,22
1420,00;24,26
1408,00;24,51
1396,00;24,78
1384,00;24,99
1372,00;25,04
1360,00;25,12
1348,00;25,24
1336,00;25,32
1324,00;25,45
1312,00;25,49
1300,00;25,56
1288,00;25,56
1276,00;25,42
1264,00;24,91
1252,00;24,40
1240,00;23,69
1228,00;23,05
1216,00;22,59
1204,00;22,28
1192,00;22,03
1180,00;21,74
1168,00;21,34
1156,00;21,05
1144,00;20,64
1132,00;20,26
1120,00;20,06
1108,00;20,19
1096,00;20,50
1084,00;20,73
1072,00;20,71
1060,00;20,48
1048,00;20,77
1036,00;21,34
1024,00;21,75
1012,00;21,86
1000,00;21,96
988,00;21,80
976,00;21,42
964,00;21,50
952,00;21,52
940,00;22,03
928,00;22,58
916,00;22,72
904,00;22,86
892,00;23,01
880,00;23,09
868,00;23,23
856,00;23,48
844,00;23,63
832,00;23,67
820,00;23,46
808,00;23,13
796,00;22,72
784,00;22,10
772,00;21,34
760,00;20,57
748,00;19,92
736,00;19,40
724,00;18,89
712,00;18,47
700,00;18,05
688,00;17,61
676,00;16,88
664,00;16,05
652,00;15,30
640,00;14,36
628,00;13,35
616,00;12,68
604,00;12,14
592,00;11,73
580,00;11,60
568,00;11,40
556,00;11,37
544,00;10,96
532,00;10,64
520,00;10,45
508,00;9,96
500,00;10,39