File: FTIR/LNB_28-10-2024/MoS2(2)-1H.csv
Criado como novo conjunto de dados;Amostra 011 por Analyst data segunda-feira, outubro 28 2024
cm-1;%T
4000,00;16,86
3988,00;16,84
3976,00;16,84
3964,00;16,83
3952,00;16,81
3940,00;16,76
3928,00;16,74
3916,00;16,71
3904,00;16,70
3892,00;16,67
3880,00;16,58
3868,00;16,62
3856,00;16,57
3844,00;16,68
3832,00;16,56
3820,00;16,59
3808,00;16,67
3796,00;16,55
3784,00;16,70
3772,00;16,69
3760,00;16,64
3748,00;16,52
3736,00;16,58
3724,00;16,62
3712,00;16,65
3700,00;16,64
3688,00;16,54
3676,00;16,53
3664,00;16,55
3652,00;16,49
3640,00;16,47
3628,00;16,28
3616,00;16,21
3604,00;16,17
3592,00;16,06
3580,00;16,00
3568,00;15,92
3556,00;15,85
3544,00;15,72
3532,00;15,69
3520,00;15,58
3508,00;15,53
3496,00;15,49
3484,00;15,42
3472,00;15,36
3460,00;15,29
3448,00;15,24
3436,00;15,20
3424,00;15,13
3412,00;15,10
3400,00;15,07
3388,00;14,99
3376,00;14,96
3364,00;14,92
3352,00;14,89
3340,00;14,85
3328,00;14,79
3316,00;14,72
3304,00;14,69
3292,00;14,61
3280,00;14,51
3268,00;14,44
3256,00;14,38
3244,00;14,30
3232,00;14,27
3220,00;14,20
3208,00;14,16
3196,00;14,13
3184,00;14,12
3172,00;14,12
3160,00;14,13
3148,00;14,14
3136,00;14,14
3124,00;14,13
3112,00;14,12
3100,00;14,09
3088,00;14,07
3076,00;14,02
3064,00;13,99
3052,00;13,98
3040,00;13,98
3028,00;13,95
3016,00;13,99
3004,00;13,97
2992,00;13,99
2980,00;14,00
2968,00;13,95
2956,00;13,88
2944,00;13,89
2932,00;13,85
2920,00;13,67
2908,00;13,63
2896,00;13,73
2884,00;13,77
2872,00;13,80
2860,00;13,79
2848,00;13,73
2836,00;13,79
2824,00;13,85
2812,00;13,89
2800,00;13,92
2788,00;13,94
2776,00;13,96
2764,00;13,97
2752,00;13,98
2740,00;13,99
2728,00;14,01
2716,00;14,01
2704,00;14,01
2692,00;14,02
2680,00;14,03
2668,00;14,02
2656,00;14,03
2644,00;14,03
2632,00;14,03
2620,00;14,02
2608,00;14,02
2596,00;14,00
2584,00;13,99
2572,00;13,98
2560,00;13,97
2548,00;13,95
2536,00;13,93
2524,00;13,91
2512,00;13,89
2500,00;13,87
2488,00;13,85
2476,00;13,84
2464,00;13,82
2452,00;13,81
2440,00;13,79
2428,00;13,77
2416,00;13,75
2404,00;13,73
2392,00;13,71
2380,00;13,82
2368,00;13,74
2356,00;13,58
2344,00;13,77
2332,00;13,55
2320,00;13,52
2308,00;13,56
2296,00;13,57
2284,00;13,57
2272,00;13,59
2260,00;13,55
2248,00;13,52
2236,00;13,51
2224,00;13,50
2212,00;13,50
2200,00;13,46
2188,00;13,45
2176,00;13,43
2164,00;13,48
2152,00;13,38
2140,00;13,35
2128,00;13,30
2116,00;13,29
2104,00;13,28
2092,00;13,26
2080,00;13,28
2068,00;13,26
2056,00;13,28
2044,00;13,26
2032,00;13,31
2020,00;13,28
2008,00;13,23
1996,00;13,18
1984,00;13,20
1972,00;13,22
1960,00;13,13
1948,00;13,08
1936,00;13,06
1924,00;13,03
1912,00;13,01
1900,00;12,99
1888,00;12,97
1876,00;12,95
1864,00;12,91
1852,00;12,91
1840,00;12,87
1828,00;12,85
1816,00;12,82
1804,00;12,80
1792,00;12,76
1780,00;12,72
1768,00;12,64
1756,00;12,61
1744,00;12,49
1732,00;12,46
1720,00;12,31
1708,00;12,20
1696,00;12,05
1684,00;12,05
1672,00;11,94
1660,00;11,84
1648,00;11,69
1636,00;11,62
1624,00;11,56
1612,00;11,55
1600,00;11,60
1588,00;11,66
1576,00;11,73
1564,00;11,74
1552,00;11,79
1540,00;11,76
1528,00;11,84
1516,00;11,78
1504,00;11,83
1492,00;11,84
1480,00;11,72
1468,00;11,39
1456,00;10,98
1444,00;10,71
1432,00;10,48
1420,00;10,47
1408,00;10,66
1396,00;10,86
1384,00;11,04
1372,00;11,09
1360,00;11,14
1348,00;11,20
1336,00;11,19
1324,00;11,23
1312,00;11,20
1300,00;11,21
1288,00;11,20
1276,00;11,18
1264,00;11,03
1252,00;10,90
1240,00;10,61
1228,00;10,16
1216,00;9,71
1204,00;9,36
1192,00;9,05
1180,00;8,82
1168,00;8,63
1156,00;8,53
1144,00;8,39
1132,00;8,18
1120,00;7,98
1108,00;7,94
1096,00;8,05
1084,00;8,15
1072,00;8,22
1060,00;8,21
1048,00;8,17
1036,00;8,14
1024,00;8,36
1012,00;8,70
1000,00;8,79
988,00;8,79
976,00;8,70
964,00;8,52
952,00;8,17
940,00;8,07
928,00;8,20
916,00;8,04
904,00;7,93
892,00;8,04
880,00;8,12
868,00;8,19
856,00;8,29
844,00;8,39
832,00;8,41
820,00;8,31
808,00;8,17
796,00;8,11
784,00;8,04
772,00;7,93
760,00;7,83
748,00;7,80
736,00;7,88
724,00;7,90
712,00;7,95
700,00;7,99
688,00;8,06
676,00;7,99
664,00;7,89
652,00;7,89
640,00;7,90
628,00;7,67
616,00;7,49
604,00;7,29
592,00;7,27
580,00;7,48
568,00;7,54
556,00;7,79
544,00;7,76
532,00;7,97
520,00;8,09
508,00;8,50
500,00;7,12