File: FTIR/LNB_28-10-2024/MoS2(2)-5H.csv
Criado como novo conjunto de dados;Amostra 012 por Analyst data segunda-feira, outubro 28 2024
cm-1;%T
4000,00;29,31
3988,00;29,32
3976,00;29,35
3964,00;29,36
3952,00;29,44
3940,00;29,43
3928,00;29,52
3916,00;29,45
3904,00;29,92
3892,00;29,58
3880,00;29,57
3868,00;29,96
3856,00;30,21
3844,00;29,79
3832,00;29,71
3820,00;30,10
3808,00;29,75
3796,00;29,66
3784,00;29,71
3772,00;29,81
3760,00;29,90
3748,00;30,60
3736,00;30,51
3724,00;30,06
3712,00;30,22
3700,00;29,84
3688,00;30,05
3676,00;30,34
3664,00;29,60
3652,00;30,29
3640,00;29,57
3628,00;29,72
3616,00;29,81
3604,00;29,31
3592,00;29,31
3580,00;28,99
3568,00;29,30
3556,00;28,79
3544,00;28,76
3532,00;28,58
3520,00;28,47
3508,00;28,41
3496,00;28,29
3484,00;28,23
3472,00;28,12
3460,00;28,05
3448,00;28,02
3436,00;27,92
3424,00;27,85
3412,00;27,79
3400,00;27,76
3388,00;27,67
3376,00;27,64
3364,00;27,61
3352,00;27,57
3340,00;27,53
3328,00;27,47
3316,00;27,39
3304,00;27,36
3292,00;27,32
3280,00;27,23
3268,00;27,17
3256,00;27,14
3244,00;27,08
3232,00;27,06
3220,00;27,02
3208,00;27,00
3196,00;27,00
3184,00;27,00
3172,00;27,01
3160,00;27,03
3148,00;27,05
3136,00;27,08
3124,00;27,11
3112,00;27,12
3100,00;27,13
3088,00;27,11
3076,00;27,10
3064,00;27,10
3052,00;27,10
3040,00;27,11
3028,00;27,12
3016,00;27,18
3004,00;27,17
2992,00;27,21
2980,00;27,24
2968,00;27,23
2956,00;27,17
2944,00;27,18
2932,00;27,21
2920,00;27,03
2908,00;26,92
2896,00;27,06
2884,00;27,14
2872,00;27,21
2860,00;27,23
2848,00;27,18
2836,00;27,22
2824,00;27,31
2812,00;27,37
2800,00;27,41
2788,00;27,45
2776,00;27,48
2764,00;27,50
2752,00;27,53
2740,00;27,56
2728,00;27,58
2716,00;27,60
2704,00;27,62
2692,00;27,64
2680,00;27,66
2668,00;27,67
2656,00;27,71
2644,00;27,77
2632,00;27,82
2620,00;27,85
2608,00;27,88
2596,00;27,91
2584,00;27,91
2572,00;27,93
2560,00;27,93
2548,00;27,93
2536,00;27,94
2524,00;27,94
2512,00;27,94
2500,00;27,93
2488,00;27,93
2476,00;27,92
2464,00;27,92
2452,00;27,92
2440,00;27,92
2428,00;27,91
2416,00;27,91
2404,00;27,90
2392,00;27,89
2380,00;28,06
2368,00;28,21
2356,00;27,88
2344,00;28,02
2332,00;27,87
2320,00;27,85
2308,00;27,88
2296,00;27,92
2284,00;27,95
2272,00;27,98
2260,00;27,97
2248,00;27,98
2236,00;27,99
2224,00;27,99
2212,00;28,01
2200,00;27,99
2188,00;28,01
2176,00;28,04
2164,00;28,05
2152,00;28,01
2140,00;27,97
2128,00;27,94
2116,00;27,92
2104,00;27,94
2092,00;27,94
2080,00;27,98
2068,00;28,01
2056,00;28,05
2044,00;28,12
2032,00;28,19
2020,00;28,14
2008,00;28,12
1996,00;28,10
1984,00;28,12
1972,00;28,14
1960,00;28,10
1948,00;28,07
1936,00;28,03
1924,00;28,04
1912,00;28,01
1900,00;27,99
1888,00;27,98
1876,00;27,98
1864,00;27,96
1852,00;27,97
1840,00;27,95
1828,00;27,99
1816,00;27,90
1804,00;27,94
1792,00;27,89
1780,00;27,89
1768,00;27,79
1756,00;27,79
1744,00;27,76
1732,00;27,67
1720,00;27,49
1708,00;27,41
1696,00;27,16
1684,00;27,20
1672,00;27,03
1660,00;26,84
1648,00;26,83
1636,00;26,70
1624,00;26,66
1612,00;26,67
1600,00;26,74
1588,00;26,84
1576,00;26,97
1564,00;27,09
1552,00;27,14
1540,00;27,19
1528,00;27,29
1516,00;27,29
1504,00;27,33
1492,00;27,36
1480,00;27,30
1468,00;27,13
1456,00;26,86
1444,00;26,80
1432,00;26,75
1420,00;26,73
1408,00;26,83
1396,00;26,90
1384,00;26,94
1372,00;26,91
1360,00;26,88
1348,00;26,92
1336,00;26,90
1324,00;26,94
1312,00;26,92
1300,00;26,89
1288,00;26,84
1276,00;26,69
1264,00;26,31
1252,00;25,96
1240,00;25,53
1228,00;25,11
1216,00;24,79
1204,00;24,54
1192,00;24,28
1180,00;24,03
1168,00;23,80
1156,00;23,60
1144,00;23,38
1132,00;23,23
1120,00;23,19
1108,00;23,26
1096,00;23,40
1084,00;23,51
1072,00;23,49
1060,00;23,32
1048,00;23,18
1036,00;23,22
1024,00;23,51
1012,00;23,78
1000,00;23,86
988,00;23,69
976,00;23,39
964,00;23,20
952,00;22,83
940,00;22,95
928,00;23,20
916,00;23,02
904,00;22,98
892,00;23,01
880,00;23,00
868,00;23,02
856,00;23,08
844,00;23,10
832,00;23,07
820,00;22,88
808,00;22,67
796,00;22,58
784,00;22,52
772,00;22,47
760,00;22,39
748,00;22,37
736,00;22,37
724,00;22,33
712,00;22,30
700,00;22,24
688,00;22,11
676,00;21,83
664,00;21,46
652,00;21,49
640,00;21,39
628,00;21,09
616,00;20,94
604,00;20,78
592,00;20,86
580,00;21,06
568,00;21,01
556,00;21,02
544,00;20,96
532,00;21,17
520,00;21,19
508,00;21,78
500,00;23,05