File: FTIR/LNB_28-10-2024/SiO2-SH-500cm-1.csv
Criado como novo conjunto de dados;Amostra 017 por Analyst data segunda-feira, outubro 28 2024
cm-1;%T
4000,00;99,96
3988,00;99,97
3976,00;99,98
3964,00;99,98
3952,00;99,99
3940,00;100,01
3928,00;100,03
3916,00;100,04
3904,00;100,05
3892,00;100,06
3880,00;100,09
3868,00;100,09
3856,00;100,11
3844,00;100,10
3832,00;100,13
3820,00;100,13
3808,00;100,13
3796,00;100,16
3784,00;100,14
3772,00;100,14
3760,00;100,17
3748,00;100,19
3736,00;100,17
3724,00;100,17
3712,00;100,16
3700,00;100,13
3688,00;100,07
3676,00;99,96
3664,00;99,76
3652,00;99,65
3640,00;99,50
3628,00;99,43
3616,00;99,37
3604,00;99,27
3592,00;99,20
3580,00;99,12
3568,00;99,05
3556,00;98,92
3544,00;98,80
3532,00;98,71
3520,00;98,58
3508,00;98,49
3496,00;98,34
3484,00;98,26
3472,00;98,16
3460,00;98,09
3448,00;98,05
3436,00;97,98
3424,00;97,99
3412,00;97,99
3400,00;98,01
3388,00;98,08
3376,00;98,14
3364,00;98,20
3352,00;98,28
3340,00;98,34
3328,00;98,44
3316,00;98,52
3304,00;98,58
3292,00;98,66
3280,00;98,75
3268,00;98,81
3256,00;98,89
3244,00;98,96
3232,00;99,02
3220,00;99,10
3208,00;99,17
3196,00;99,24
3184,00;99,31
3172,00;99,38
3160,00;99,44
3148,00;99,50
3136,00;99,55
3124,00;99,62
3112,00;99,66
3100,00;99,72
3088,00;99,77
3076,00;99,82
3064,00;99,88
3052,00;99,92
3040,00;99,96
3028,00;100,00
3016,00;100,00
3004,00;100,00
2992,00;99,84
2980,00;99,39
2968,00;98,99
2956,00;98,59
2944,00;98,09
2932,00;96,48
2920,00;97,20
2908,00;98,20
2896,00;98,60
2884,00;98,65
2872,00;99,14
2860,00;99,07
2848,00;99,43
2836,00;99,89
2824,00;100,21
2812,00;100,32
2800,00;100,33
2788,00;100,37
2776,00;100,48
2764,00;100,54
2752,00;100,56
2740,00;100,58
2728,00;100,62
2716,00;100,64
2704,00;100,65
2692,00;100,65
2680,00;100,64
2668,00;100,64
2656,00;100,55
2644,00;100,56
2632,00;100,59
2620,00;100,63
2608,00;100,67
2596,00;100,68
2584,00;100,65
2572,00;100,51
2560,00;100,39
2548,00;100,45
2536,00;100,60
2524,00;100,74
2512,00;100,82
2500,00;100,89
2488,00;100,94
2476,00;100,98
2464,00;100,99
2452,00;100,97
2440,00;101,04
2428,00;101,08
2416,00;101,13
2404,00;101,19
2392,00;101,21
2380,00;101,23
2368,00;101,24
2356,00;101,25
2344,00;101,09
2332,00;101,21
2320,00;100,98
2308,00;101,13
2296,00;101,11
2284,00;101,03
2272,00;101,29
2260,00;101,40
2248,00;101,54
2236,00;101,60
2224,00;101,70
2212,00;101,79
2200,00;101,87
2188,00;101,87
2176,00;102,17
2164,00;102,01
2152,00;102,89
2140,00;102,54
2128,00;102,35
2116,00;101,93
2104,00;101,99
2092,00;102,16
2080,00;102,03
2068,00;102,26
2056,00;102,36
2044,00;102,73
2032,00;103,16
2020,00;103,18
2008,00;103,03
1996,00;102,60
1984,00;102,24
1972,00;102,63
1960,00;102,42
1948,00;102,05
1936,00;101,86
1924,00;101,74
1912,00;101,60
1900,00;101,50
1888,00;101,43
1876,00;101,35
1864,00;101,31
1852,00;101,27
1840,00;101,25
1828,00;101,22
1816,00;101,27
1804,00;101,16
1792,00;101,15
1780,00;101,15
1768,00;101,15
1756,00;101,13
1744,00;101,10
1732,00;101,07
1720,00;101,04
1708,00;101,00
1696,00;100,95
1684,00;100,83
1672,00;100,73
1660,00;100,58
1648,00;100,39
1636,00;100,17
1624,00;100,07
1612,00;100,19
1600,00;100,51
1588,00;100,71
1576,00;100,81
1564,00;100,87
1552,00;100,89
1540,00;100,92
1528,00;100,87
1516,00;100,86
1504,00;100,83
1492,00;100,76
1480,00;100,62
1468,00;100,49
1456,00;98,97
1444,00;98,61
1432,00;99,02
1420,00;99,46
1408,00;98,54
1396,00;99,46
1384,00;100,20
1372,00;100,34
1360,00;100,29
1348,00;99,00
1336,00;99,61
1324,00;100,05
1312,00;98,73
1300,00;98,61
1288,00;99,28
1276,00;98,36
1264,00;93,64
1252,00;92,92
1240,00;90,89
1228,00;91,30
1216,00;88,41
1204,00;83,36
1192,00;76,21
1180,00;71,59
1168,00;67,75
1156,00;63,78
1144,00;59,09
1132,00;54,54
1120,00;51,12
1108,00;47,40
1096,00;43,31
1084,00;40,68
1072,00;37,32
1060,00;33,89
1048,00;31,27
1036,00;29,58
1024,00;33,44
1012,00;43,54
1000,00;52,97
988,00;67,18
976,00;73,76
964,00;77,11
952,00;78,71
940,00;80,80
928,00;80,85
916,00;81,64
904,00;84,43
892,00;86,11
880,00;87,28
868,00;88,22
856,00;89,59
844,00;90,36
832,00;87,24
820,00;78,75
808,00;73,25
796,00;72,68
784,00;74,23
772,00;77,03
760,00;79,04
748,00;79,86
736,00;81,29
724,00;82,91
712,00;82,27
700,00;78,91
688,00;76,32
676,00;79,94
664,00;83,50
652,00;84,88
640,00;86,13
628,00;85,96
616,00;84,87
604,00;83,29
592,00;81,58
580,00;79,86
568,00;78,56
556,00;77,92
544,00;78,56
532,00;79,99
520,00;81,07
508,00;80,55
500,00;78,35