File: FTIR/LNB_28-10-2024/SiO2-SH.csv
Criado como novo conjunto de dados;Amostra 016 por Analyst data segunda-feira, outubro 28 2024
cm-1;%T
4000,00;99,98
3987,00;99,99
3974,00;100,00
3961,00;100,00
3948,00;100,02
3935,00;100,01
3922,00;100,04
3909,00;100,04
3896,00;100,08
3883,00;100,08
3870,00;100,12
3857,00;100,11
3844,00;100,11
3831,00;100,14
3818,00;100,16
3805,00;100,14
3792,00;100,15
3779,00;100,16
3766,00;100,18
3753,00;100,19
3740,00;100,20
3727,00;100,19
3714,00;100,18
3701,00;100,15
3688,00;100,09
3675,00;99,97
3662,00;99,74
3649,00;99,63
3636,00;99,49
3623,00;99,42
3610,00;99,35
3597,00;99,26
3584,00;99,18
3571,00;99,08
3558,00;98,97
3545,00;98,84
3532,00;98,74
3519,00;98,61
3506,00;98,50
3493,00;98,36
3480,00;98,25
3467,00;98,15
3454,00;98,12
3441,00;98,07
3428,00;98,02
3415,00;98,04
3402,00;98,05
3389,00;98,10
3376,00;98,17
3363,00;98,24
3350,00;98,31
3337,00;98,39
3324,00;98,49
3311,00;98,57
3298,00;98,66
3285,00;98,74
3272,00;98,80
3259,00;98,89
3246,00;98,96
3233,00;99,03
3220,00;99,11
3207,00;99,19
3194,00;99,27
3181,00;99,34
3168,00;99,41
3155,00;99,47
3142,00;99,54
3129,00;99,60
3116,00;99,64
3103,00;99,73
3090,00;99,77
3077,00;99,83
3064,00;99,89
3051,00;99,94
3038,00;99,98
3025,00;100,01
3012,00;100,01
2999,00;99,97
2986,00;99,69
2973,00;99,15
2960,00;98,71
2947,00;98,46
2934,00;96,69
2921,00;97,19
2908,00;98,25
2895,00;98,63
2882,00;98,80
2869,00;99,13
2856,00;99,16
2843,00;99,64
2830,00;100,09
2817,00;100,29
2804,00;100,33
2791,00;100,36
2778,00;100,47
2765,00;100,53
2752,00;100,56
2739,00;100,59
2726,00;100,62
2713,00;100,65
2700,00;100,65
2687,00;100,65
2674,00;100,64
2661,00;100,59
2648,00;100,55
2635,00;100,58
2622,00;100,62
2609,00;100,67
2596,00;100,68
2583,00;100,65
2570,00;100,48
2557,00;100,39
2544,00;100,51
2531,00;100,68
2518,00;100,78
2505,00;100,87
2492,00;100,91
2479,00;100,97
2466,00;100,99
2453,00;100,98
2440,00;101,04
2427,00;101,09
2414,00;101,13
2401,00;101,20
2388,00;101,23
2375,00;101,25
2362,00;101,24
2349,00;101,17
2336,00;101,20
2323,00;100,84
2310,00;101,13
2297,00;101,12
2284,00;101,03
2271,00;101,29
2258,00;101,41
2245,00;101,53
2232,00;101,60
2219,00;101,73
2206,00;101,82
2193,00;101,88
2180,00;102,18
2167,00;101,98
2154,00;103,13
2141,00;102,58
2128,00;102,36
2115,00;101,91
2102,00;101,99
2089,00;102,07
2076,00;102,08
2063,00;102,32
2050,00;102,18
2037,00;102,88
2024,00;103,21
2011,00;103,01
1998,00;102,69
1985,00;102,25
1972,00;102,63
1959,00;102,42
1946,00;102,00
1933,00;101,82
1920,00;101,66
1907,00;101,56
1894,00;101,47
1881,00;101,40
1868,00;101,34
1855,00;101,28
1842,00;101,27
1829,00;101,23
1816,00;101,28
1803,00;101,16
1790,00;101,16
1777,00;101,17
1764,00;101,14
1751,00;101,11
1738,00;101,09
1725,00;101,06
1712,00;101,03
1699,00;100,92
1686,00;100,86
1673,00;100,73
1660,00;100,58
1647,00;100,36
1634,00;100,13
1621,00;100,07
1608,00;100,29
1595,00;100,61
1582,00;100,77
1569,00;100,84
1556,00;100,89
1543,00;100,88
1530,00;100,88
1517,00;100,87
1504,00;100,83
1491,00;100,75
1478,00;100,63
1465,00;100,33
1452,00;98,88
1439,00;98,78
1426,00;99,10
1413,00;99,05
1400,00;99,08
1387,00;100,07
1374,00;100,37
1361,00;100,31
1348,00;99,03
1335,00;99,73
1322,00;100,00
1309,00;98,40
1296,00;99,00
1283,00;99,16
1270,00;96,57
1257,00;92,80
1244,00;91,72
1231,00;91,54
1218,00;89,20
1205,00;84,01
1192,00;76,41
1179,00;71,60
1166,00;67,31
1153,00;63,01
1140,00;57,79
1127,00;53,35
1114,00;49,86
1101,00;45,24
1088,00;41,97
1075,00;38,69
1062,00;34,92
1049,00;32,03
1036,00;30,20
1023,00;34,86
1010,00;45,93
997,00;57,36
984,00;70,51
971,00;76,20
958,00;78,26
945,00;80,37
932,00;81,51
919,00;81,45
906,00;84,37
893,00;86,33
880,00;87,59
867,00;88,56
854,00;90,09
841,00;90,32
828,00;84,95
815,00;76,08
802,00;72,96
789,00;73,86
776,00;76,43
763,00;79,04
750,00;80,08
737,00;81,46
724,00;83,18
711,00;82,39
698,00;78,42
685,00;77,36
672,00;81,44
659,00;84,66
646,00;85,68
633,00;86,40
620,00;85,53
607,00;83,91
594,00;82,18
581,00;80,27
568,00;78,89
555,00;78,24
542,00;78,89
529,00;80,52
516,00;81,44
503,00;79,79
490,00;72,36
477,00;54,87
464,00;91,44
451,00;98,04
438,00;238,02
425,00;83,79
412,00;312,83
400,00;144,22