File: FTIR/LNB_28-10-2024/SiO2-PDA.csv
Criado como novo conjunto de dados;Amostra 019 por Analyst data segunda-feira, outubro 28 2024
cm-1;%T
4000,00;101,70
3988,00;101,70
3976,00;101,69
3964,00;101,69
3952,00;101,69
3940,00;101,71
3928,00;101,71
3916,00;101,72
3904,00;101,70
3892,00;101,73
3880,00;101,75
3868,00;101,74
3856,00;101,75
3844,00;101,71
3832,00;101,75
3820,00;101,73
3808,00;101,71
3796,00;101,74
3784,00;101,69
3772,00;101,67
3760,00;101,67
3748,00;101,71
3736,00;101,62
3724,00;101,62
3712,00;101,56
3700,00;101,47
3688,00;101,27
3676,00;100,95
3664,00;100,52
3652,00;100,23
3640,00;99,96
3628,00;99,82
3616,00;99,65
3604,00;99,49
3592,00;99,35
3580,00;99,17
3568,00;98,96
3556,00;98,72
3544,00;98,43
3532,00;98,18
3520,00;97,90
3508,00;97,64
3496,00;97,35
3484,00;97,13
3472,00;96,90
3460,00;96,67
3448,00;96,50
3436,00;96,28
3424,00;96,17
3412,00;96,02
3400,00;95,92
3388,00;95,88
3376,00;95,86
3364,00;95,85
3352,00;95,86
3340,00;95,89
3328,00;95,94
3316,00;95,97
3304,00;95,99
3292,00;96,03
3280,00;96,07
3268,00;96,10
3256,00;96,15
3244,00;96,21
3232,00;96,28
3220,00;96,39
3208,00;96,51
3196,00;96,64
3184,00;96,78
3172,00;96,93
3160,00;97,07
3148,00;97,21
3136,00;97,35
3124,00;97,50
3112,00;97,65
3100,00;97,79
3088,00;97,94
3076,00;98,08
3064,00;98,23
3052,00;98,37
3040,00;98,51
3028,00;98,65
3016,00;98,79
3004,00;98,91
2992,00;99,00
2980,00;99,09
2968,00;99,24
2956,00;99,38
2944,00;99,49
2932,00;99,61
2920,00;99,74
2908,00;99,82
2896,00;99,92
2884,00;100,02
2872,00;100,13
2860,00;100,22
2848,00;100,31
2836,00;100,38
2824,00;100,45
2812,00;100,53
2800,00;100,59
2788,00;100,64
2776,00;100,69
2764,00;100,74
2752,00;100,79
2740,00;100,83
2728,00;100,87
2716,00;100,91
2704,00;100,95
2692,00;100,99
2680,00;101,02
2668,00;101,05
2656,00;100,93
2644,00;100,94
2632,00;101,00
2620,00;101,06
2608,00;101,12
2596,00;101,18
2584,00;101,23
2572,00;101,27
2560,00;101,32
2548,00;101,35
2536,00;101,39
2524,00;101,42
2512,00;101,43
2500,00;101,44
2488,00;101,46
2476,00;101,48
2464,00;101,47
2452,00;101,44
2440,00;101,49
2428,00;101,55
2416,00;101,58
2404,00;101,64
2392,00;101,64
2380,00;101,65
2368,00;101,63
2356,00;101,63
2344,00;101,46
2332,00;101,55
2320,00;101,25
2308,00;101,42
2296,00;101,35
2284,00;101,22
2272,00;101,47
2260,00;101,60
2248,00;101,74
2236,00;101,78
2224,00;101,94
2212,00;102,07
2200,00;102,19
2188,00;102,25
2176,00;102,62
2164,00;102,38
2152,00;103,49
2140,00;103,02
2128,00;102,73
2116,00;102,24
2104,00;102,24
2092,00;102,42
2080,00;102,20
2068,00;102,31
2056,00;102,29
2044,00;102,39
2032,00;102,57
2020,00;102,42
2008,00;102,26
1996,00;101,93
1984,00;101,68
1972,00;102,28
1960,00;102,36
1948,00;102,13
1936,00;102,07
1924,00;101,99
1912,00;101,79
1900,00;101,66
1888,00;101,55
1876,00;101,43
1864,00;101,40
1852,00;101,41
1840,00;101,45
1828,00;101,45
1816,00;101,51
1804,00;101,35
1792,00;101,29
1780,00;101,21
1768,00;101,13
1756,00;100,96
1744,00;100,78
1732,00;100,60
1720,00;100,42
1708,00;100,18
1696,00;99,90
1684,00;99,43
1672,00;98,90
1660,00;98,22
1648,00;97,50
1636,00;96,81
1624,00;96,59
1612,00;96,92
1600,00;97,52
1588,00;97,97
1576,00;98,27
1564,00;98,51
1552,00;98,61
1540,00;98,61
1528,00;98,44
1516,00;98,27
1504,00;98,27
1492,00;98,52
1480,00;98,76
1468,00;98,81
1456,00;98,79
1444,00;98,73
1432,00;98,85
1420,00;98,98
1408,00;98,93
1396,00;98,82
1384,00;98,69
1372,00;98,61
1360,00;98,50
1348,00;98,37
1336,00;98,26
1324,00;98,18
1312,00;97,86
1300,00;97,39
1288,00;96,79
1276,00;95,94
1264,00;94,28
1252,00;90,34
1240,00;84,85
1228,00;80,28
1216,00;76,69
1204,00;73,67
1192,00;70,91
1180,00;68,25
1168,00;65,77
1156,00;63,63
1144,00;61,71
1132,00;59,40
1120,00;54,51
1108,00;41,81
1096,00;28,93
1084,00;21,86
1072,00;18,25
1060,00;17,29
1048,00;20,37
1036,00;31,24
1024,00;50,79
1012,00;69,56
1000,00;80,31
988,00;82,66
976,00;78,62
964,00;74,68
952,00;72,99
940,00;73,55
928,00;76,19
916,00;80,12
904,00;83,78
892,00;86,64
880,00;88,37
868,00;89,28
856,00;89,50
844,00;88,14
832,00;83,96
820,00;78,94
808,00;74,86
796,00;73,00
784,00;74,85
772,00;80,80
760,00;83,06
748,00;83,43
736,00;83,79
724,00;84,07
712,00;84,24
700,00;84,34
688,00;84,36
676,00;84,29
664,00;84,16
652,00;83,84
640,00;83,43
628,00;82,91
616,00;82,05
604,00;80,89
592,00;79,54
580,00;77,93
568,00;76,34
556,00;74,98
544,00;74,53
532,00;74,99
520,00;74,91
508,00;74,22
500,00;70,12