File: FTIR/LNB_28-10-2024/SiO2-PDA-PDA.csv
Criado como novo conjunto de dados;Amostra 022 por Analyst data segunda-feira, outubro 28 2024
cm-1;%T
4000,00;101,14
3988,00;101,15
3976,00;101,16
3964,00;101,16
3952,00;101,17
3940,00;101,19
3928,00;101,20
3916,00;101,21
3904,00;101,23
3892,00;101,24
3880,00;101,29
3868,00;101,25
3856,00;101,27
3844,00;101,26
3832,00;101,29
3820,00;101,28
3808,00;101,27
3796,00;101,32
3784,00;101,27
3772,00;101,27
3760,00;101,29
3748,00;101,31
3736,00;101,32
3724,00;101,31
3712,00;101,28
3700,00;101,23
3688,00;101,14
3676,00;100,96
3664,00;100,65
3652,00;100,42
3640,00;100,17
3628,00;100,04
3616,00;99,89
3604,00;99,74
3592,00;99,62
3580,00;99,48
3568,00;99,35
3556,00;99,15
3544,00;98,94
3532,00;98,74
3520,00;98,54
3508,00;98,34
3496,00;98,12
3484,00;97,95
3472,00;97,77
3460,00;97,60
3448,00;97,45
3436,00;97,26
3424,00;97,15
3412,00;97,01
3400,00;96,89
3388,00;96,83
3376,00;96,77
3364,00;96,74
3352,00;96,73
3340,00;96,72
3328,00;96,74
3316,00;96,75
3304,00;96,77
3292,00;96,78
3280,00;96,79
3268,00;96,80
3256,00;96,83
3244,00;96,85
3232,00;96,91
3220,00;96,94
3208,00;97,01
3196,00;97,09
3184,00;97,17
3172,00;97,26
3160,00;97,35
3148,00;97,45
3136,00;97,55
3124,00;97,65
3112,00;97,77
3100,00;97,87
3088,00;97,99
3076,00;98,10
3064,00;98,20
3052,00;98,31
3040,00;98,43
3028,00;98,54
3016,00;98,67
3004,00;98,76
2992,00;98,87
2980,00;98,95
2968,00;99,02
2956,00;99,13
2944,00;99,22
2932,00;99,34
2920,00;99,46
2908,00;99,51
2896,00;99,58
2884,00;99,64
2872,00;99,74
2860,00;99,82
2848,00;99,90
2836,00;99,94
2824,00;99,99
2812,00;100,05
2800,00;100,10
2788,00;100,15
2776,00;100,19
2764,00;100,22
2752,00;100,26
2740,00;100,29
2728,00;100,32
2716,00;100,36
2704,00;100,40
2692,00;100,44
2680,00;100,48
2668,00;100,50
2656,00;100,43
2644,00;100,45
2632,00;100,51
2620,00;100,57
2608,00;100,62
2596,00;100,68
2584,00;100,74
2572,00;100,79
2560,00;100,84
2548,00;100,89
2536,00;100,93
2524,00;100,97
2512,00;101,00
2500,00;101,02
2488,00;101,05
2476,00;101,07
2464,00;101,09
2452,00;101,08
2440,00;101,16
2428,00;101,20
2416,00;101,24
2404,00;101,30
2392,00;101,32
2380,00;101,40
2368,00;101,39
2356,00;101,43
2344,00;101,28
2332,00;101,35
2320,00;101,09
2308,00;101,23
2296,00;101,19
2284,00;101,12
2272,00;101,33
2260,00;101,44
2248,00;101,55
2236,00;101,59
2224,00;101,74
2212,00;101,89
2200,00;102,00
2188,00;102,08
2176,00;102,40
2164,00;102,24
2152,00;103,05
2140,00;102,66
2128,00;102,42
2116,00;102,00
2104,00;101,98
2092,00;102,08
2080,00;101,88
2068,00;101,91
2056,00;101,85
2044,00;101,90
2032,00;102,03
2020,00;102,03
2008,00;101,96
1996,00;101,76
1984,00;101,55
1972,00;102,04
1960,00;102,09
1948,00;101,95
1936,00;101,91
1924,00;101,85
1912,00;101,72
1900,00;101,64
1888,00;101,55
1876,00;101,48
1864,00;101,45
1852,00;101,44
1840,00;101,45
1828,00;101,45
1816,00;101,46
1804,00;101,30
1792,00;101,20
1780,00;101,08
1768,00;100,92
1756,00;100,64
1744,00;100,33
1732,00;99,99
1720,00;99,73
1708,00;99,44
1696,00;99,08
1684,00;98,50
1672,00;97,80
1660,00;96,82
1648,00;95,74
1636,00;94,55
1624,00;93,81
1612,00;93,61
1600,00;93,75
1588,00;94,04
1576,00;94,34
1564,00;94,67
1552,00;94,83
1540,00;94,82
1528,00;94,46
1516,00;93,98
1504,00;93,86
1492,00;94,57
1480,00;95,37
1468,00;95,62
1456,00;95,68
1444,00;95,53
1432,00;95,80
1420,00;96,15
1408,00;96,12
1396,00;95,93
1384,00;95,68
1372,00;95,46
1360,00;95,20
1348,00;94,93
1336,00;94,85
1324,00;94,87
1312,00;94,47
1300,00;93,83
1288,00;93,23
1276,00;92,80
1264,00;92,07
1252,00;89,93
1240,00;86,31
1228,00;83,00
1216,00;80,33
1204,00;77,97
1192,00;75,79
1180,00;73,74
1168,00;71,76
1156,00;69,99
1144,00;68,38
1132,00;66,27
1120,00;61,82
1108,00;49,62
1096,00;36,35
1084,00;31,44
1072,00;31,27
1060,00;34,73
1048,00;43,16
1036,00;57,49
1024,00;73,13
1012,00;83,38
1000,00;87,94
988,00;88,46
976,00;85,55
964,00;82,64
952,00;81,41
940,00;81,91
928,00;83,78
916,00;86,27
904,00;88,26
892,00;89,51
880,00;90,29
868,00;90,67
856,00;90,70
844,00;89,89
832,00;87,26
820,00;83,90
808,00;81,24
796,00;80,10
784,00;81,26
772,00;84,72
760,00;85,88
748,00;85,98
736,00;86,08
724,00;86,13
712,00;86,20
700,00;86,15
688,00;86,03
676,00;85,92
664,00;85,72
652,00;85,39
640,00;84,98
628,00;84,40
616,00;83,80
604,00;82,97
592,00;81,82
580,00;80,55
568,00;79,51
556,00;78,59
544,00;77,96
532,00;78,43
520,00;77,94
508,00;76,91
500,00;75,16