File: TGA/HCS@MoS2 (3).csv
#EXPORTTYPE:                 ;DATA ALL
#FILE:                       ;HC9@MOS23.ngb-ds3
#FORMAT:                     ;NETZSCH5
#FTYPE:                      ;ASCII
#IDENTITY:                   ;HC9@MOS23
#DECIMAL:                    ;COMMA
#SEPARATOR:                  ;SEMICOLON
#MTYPE:                      ;TG
#INSTRUMENT:                 ;NETZSCH STA 449F3
#PROJECT:                    ;-
#DATE/TIME:                  ;19/11/2024 09:45:33 (UTC-3)
#CORR. FILE:                 ;Correction.ngb-bs3
#TEMPCAL:                    ;Cal_08_2024_Ar_5C.ngb-ts3
#SENSITIVITY:                ;---
#LABORATORY:                 ;Proc de Nanocerümicas
#OPERATOR:                   ;Danilo Janes
#REMARK:                     ;
#SAMPLE:                     ;HC9@MOS23
#SAMPLE MASS /mg:            ;12,2115
#MATERIAL:                   ;
#REFERENCE:                  ;
#REFERENCE MASS /mg:         ;
#TYPE OF CRUCIBLE:           ;DTA/TG crucible Al2O3
#SAMPLE CRUCIBLE MASS /mg:   ;0
#REFERENCE CRUCIBLE MASS /mg:;
#TG RANGE /mg:               ;35000
#TAU-R:                      ;---
#CORR. CODE:                 ;020
#EXO:                        ;-1
#RANGE:                      ;20oC/10,0(K/min)/1000oC
#SEGMENT:                    ;S1/1
#SEG. 1:                     ;20oC/10,0(K/min)/1000oC

##Temp./oC;Time/min;Mass/%;Gas Flow(purge1)/(ml/min);Gas Flow(protective)/(ml/min)
 25,20800; 0,00000;100,00000;20,00000;20,00000
 25,27029; 0,50503; 99,96418;20,00000;20,00000
 26,79434; 1,01007; 99,92555;20,00000;20,00000
 29,90869; 1,51510; 99,85047;20,00000;20,00000
 34,27231; 2,02013; 99,80751;20,00000;20,00000
 39,59097; 2,52516; 99,73038;20,00000;20,00000
 45,54418; 3,03020; 99,61096;20,00000;20,00000
 51,77074; 3,53523; 99,40391;20,00000;20,00000
 57,96628; 4,04026; 99,13343;20,00000;20,00000
 63,98874; 4,54530; 98,74407;20,00000;20,00000
 69,76238; 5,05033; 98,31751;20,00000;20,00000
 75,24314; 5,55536; 97,83712;20,00000;20,00000
 80,45146; 6,06040; 97,30702;20,00000;20,00000
 85,52491; 6,56543; 96,80489;20,00000;20,00000
 90,50964; 7,07046; 96,29836;20,00000;20,00000
 95,47840; 7,57549; 95,83852;20,00000;20,00000
100,44292; 8,08053; 95,35559;20,00000;20,00000
105,43666; 8,58556; 95,00550;20,00000;20,00000
110,42307; 9,09059; 94,66955;20,00000;20,00000
115,45442; 9,59563; 94,36511;20,00000;20,00000
120,45946;10,10066; 94,12914;20,00000;20,00000
125,49420;10,60569; 93,95564;20,00000;20,00000
130,57694;11,11073; 93,83285;20,00000;20,00000
135,68439;11,61576; 93,72065;20,00000;20,00000
140,78611;12,12079; 93,61820;20,00000;20,00000
145,88823;12,62583; 93,54071;20,00000;20,00000
150,96625;13,13086; 93,44864;20,00000;20,00000
156,04214;13,63589; 93,38996;20,00000;20,00000
161,07711;14,14092; 93,34458;20,00000;20,00000
166,11845;14,64596; 93,29272;20,00000;20,00000
171,15910;15,15099; 93,26864;20,00000;20,00000
176,19125;15,65602; 93,23333;20,00000;20,00000
181,23796;16,16106; 93,17684;20,00000;20,00000
186,30418;16,66609; 93,14819;20,00000;20,00000
191,39496;17,17112; 93,13347;20,00000;20,00000
196,48040;17,67616; 93,05694;20,00000;20,00000
201,56600;18,18119; 93,03604;20,00000;20,00000
206,61730;18,68622; 92,97271;20,00000;20,00000
211,69540;19,19125; 92,90818;20,00000;20,00000
216,73577;19,69629; 92,82209;20,00000;20,00000
221,78515;20,20132; 92,75091;20,00000;20,00000
226,84719;20,70635; 92,66185;20,00000;20,00000
231,89655;21,21139; 92,52332;20,00000;20,00000
236,94258;21,71642; 92,39282;20,00000;20,00000
242,00774;22,22145; 92,22065;20,00000;20,00000
247,05594;22,72648; 92,04643;20,00000;20,00000
252,10497;23,23152; 91,85511;20,00000;20,00000
257,15585;23,73655; 91,61427;20,00000;20,00000
262,20276;24,24158; 91,33498;20,00000;20,00000
267,23108;24,74662; 91,05180;20,00000;20,00000
272,28599;25,25165; 90,73660;20,00000;20,00000
277,34813;25,75668; 90,40827;20,00000;20,00000
282,41028;26,26172; 90,04373;20,00000;20,00000
287,46415;26,76675; 89,65801;20,00000;20,00000
292,51279;27,27178; 89,25050;20,00000;20,00000
297,54366;27,77681; 88,86560;20,00000;20,00000
302,53087;28,28185; 88,45577;20,00000;20,00000
307,54578;28,78688; 88,01773;20,00000;20,00000
312,60083;29,29191; 87,58125;20,00000;20,00000
317,68101;29,79695; 87,11117;20,00000;20,00000
322,79118;30,30198; 86,62380;20,00000;20,00000
327,87484;30,80701; 86,13029;20,00000;20,00000
332,90824;31,31205; 85,59447;20,00000;20,00000
337,92194;31,81708; 85,06518;20,00000;20,00000
342,97790;32,32211; 84,48005;20,00000;20,00000
348,02746;32,82714; 83,85828;20,00000;20,00000
353,03631;33,33218; 83,21231;20,00000;20,00000
358,05065;33,83721; 82,49954;20,00000;20,00000
363,10077;34,34224; 81,78165;20,00000;20,00000
368,12326;34,84728; 81,04693;20,00000;20,00000
373,19395;35,35231; 80,33991;20,00000;20,00000
378,26934;35,85734; 79,61880;20,00000;20,00000
383,33391;36,36238; 78,89636;20,00000;20,00000
388,36699;36,86741; 78,19325;20,00000;20,00000
393,42587;37,37244; 77,49256;20,00000;20,00000
398,46584;37,87748; 76,78127;20,00000;20,00000
403,52234;38,38251; 76,09572;20,00000;20,00000
408,57615;38,88754; 75,36271;20,00000;20,00000
413,63166;39,39257; 74,63139;20,00000;20,00000
418,70152;39,89761; 73,90819;20,00000;20,00000
423,75172;40,40264; 73,19620;20,00000;20,00000
428,78838;40,90767; 72,47992;20,00000;20,00000
433,84208;41,41271; 71,75270;20,00000;20,00000
438,85539;41,91774; 71,00150;20,00000;20,00000
443,89809;42,42277; 70,24146;20,00000;20,00000
448,93237;42,92781; 69,45384;20,00000;20,00000
453,97332;43,43284; 68,64478;20,00000;20,00000
459,05126;43,93787; 67,86301;20,00000;20,00000
464,09223;44,44290; 67,05328;20,00000;20,00000
469,15713;44,94794; 66,24395;20,00000;20,00000
474,22387;45,45297; 65,43648;20,00000;20,00000
479,26819;45,95800; 64,62450;20,00000;20,00000
484,32097;46,46304; 63,80489;20,00000;20,00000
489,35424;46,96807; 62,98652;20,00000;20,00000
494,42319;47,47310; 62,15673;20,00000;20,00000
499,45552;47,97814; 61,29728;20,00000;20,00000
504,51999;48,48317; 60,41651;20,00000;20,00000
509,57110;48,98820; 59,53239;20,00000;20,00000
514,64266;49,49323; 58,62162;20,00000;20,00000
519,67905;49,99827; 57,71550;20,00000;20,00000
524,72751;50,50330; 56,80325;20,00000;20,00000
529,74999;51,00833; 55,89758;20,00000;20,00000
534,78686;51,51337; 55,02133;20,00000;20,00000
539,86022;52,01840; 54,16385;20,00000;20,00000
544,92345;52,52343; 53,35105;20,00000;20,00000
549,97111;53,02847; 52,56710;20,00000;20,00000
555,00282;53,53350; 51,82471;20,00000;20,00000
560,06783;54,03853; 51,11901;20,00000;20,00000
565,17980;54,54356; 50,38698;20,00000;20,00000
570,26378;55,04860; 49,74684;20,00000;20,00000
575,32505;55,55363; 49,07097;20,00000;20,00000
580,35358;56,05866; 48,46058;20,00000;20,00000
585,39052;56,56370; 47,83702;20,00000;20,00000
590,42134;57,06873; 47,26264;20,00000;20,00000
595,48607;57,57376; 46,69936;20,00000;20,00000
600,55824;58,07880; 46,10820;20,00000;20,00000
605,62039;58,58383; 45,52740;20,00000;20,00000
610,65287;59,08886; 44,95751;20,00000;20,00000
615,68974;59,59389; 44,35726;20,00000;20,00000
620,72914;60,09893; 43,77362;20,00000;20,00000
625,77712;60,60396; 43,20087;20,00000;20,00000
630,81470;61,10899; 42,59647;20,00000;20,00000
635,86712;61,61403; 42,05336;20,00000;20,00000
640,93766;62,11906; 41,51393;20,00000;20,00000
645,99487;62,62409; 40,97365;20,00000;20,00000
651,06085;63,12913; 40,41907;20,00000;20,00000
656,10524;63,63416; 39,86229;20,00000;20,00000
661,13931;64,13919; 39,28789;20,00000;20,00000
666,18536;64,64422; 38,73620;20,00000;20,00000
671,21540;65,14926; 38,20179;20,00000;20,00000
676,30434;65,65429; 37,66973;20,00000;20,00000
681,34357;66,15932; 37,14266;20,00000;20,00000
686,41860;66,66436; 36,62421;20,00000;20,00000
691,49487;67,16939; 36,26129;20,00000;20,00000
696,29785;67,67442; 36,66736;20,00000;20,00000
701,20451;68,17946; 37,05812;20,00000;20,00000
706,32276;68,68449; 37,20753;20,00000;20,00000
711,58607;69,18952; 37,25341;20,00000;20,00000
716,78932;69,69455; 37,25617;20,00000;20,00000
721,87871;70,19959; 37,27552;20,00000;20,00000
726,88568;70,70462; 37,26898;20,00000;20,00000
731,89138;71,20965; 37,25588;20,00000;20,00000
736,92713;71,71469; 37,24266;20,00000;20,00000
742,00808;72,21972; 37,21082;20,00000;20,00000
747,08683;72,72475; 37,17560;20,00000;20,00000
752,12677;73,22979; 37,12323;20,00000;20,00000
757,14333;73,73482; 37,06356;20,00000;20,00000
762,18655;74,23985; 36,98156;20,00000;20,00000
767,18125;74,74488; 36,89983;20,00000;20,00000
772,22620;75,24992; 36,77518;20,00000;20,00000
777,36180;75,75495; 36,65848;20,00000;20,00000
782,49483;76,25998; 36,48365;20,00000;20,00000
787,51782;76,76502; 36,28510;20,00000;20,00000
792,50843;77,27005; 36,09466;20,00000;20,00000
797,54949;77,77508; 35,86627;20,00000;20,00000
802,60004;78,28012; 35,63438;20,00000;20,00000
807,68145;78,78515; 35,36315;20,00000;20,00000
812,74785;79,29018; 35,08241;20,00000;20,00000
817,79287;79,79521; 34,75861;20,00000;20,00000
822,81041;80,30025; 34,43801;20,00000;20,00000
827,84956;80,80528; 34,13334;20,00000;20,00000
832,89499;81,31031; 33,79577;20,00000;20,00000
837,96713;81,81535; 33,47485;20,00000;20,00000
843,03375;82,32038; 33,11036;20,00000;20,00000
848,08538;82,82541; 32,75504;20,00000;20,00000
853,13936;83,33045; 32,35296;20,00000;20,00000
858,19082;83,83548; 31,96338;20,00000;20,00000
863,24119;84,34051; 31,57616;20,00000;20,00000
868,27403;84,84554; 31,14956;20,00000;20,00000
873,32777;85,35058; 30,70659;20,00000;20,00000
878,38134;85,85561; 30,22757;20,00000;20,00000
883,43263;86,36064; 29,68253;20,00000;20,00000
888,49126;86,86568; 29,10325;20,00000;20,00000
893,54359;87,37071; 28,43787;20,00000;20,00000
898,59110;87,87574; 27,69962;20,00000;20,00000
903,64038;88,38078; 26,90579;20,00000;20,00000
908,68843;88,88581; 26,05050;20,00000;20,00000
913,75896;89,39084; 25,14219;20,00000;20,00000
918,80918;89,89587; 24,18573;20,00000;20,00000
923,86102;90,40091; 23,19574;20,00000;20,00000
928,91266;90,90594; 22,07746;20,00000;20,00000
933,95637;91,41097; 20,96927;20,00000;20,00000
939,01973;91,91601; 19,78902;20,00000;20,00000
944,07451;92,42104; 18,56628;20,00000;20,00000
949,12678;92,92607; 17,25492;20,00000;20,00000
954,18236;93,43111; 15,86610;20,00000;20,00000
959,23209;93,93614; 14,57520;20,00000;20,00000
964,28536;94,44117; 13,47789;20,00000;20,00000
969,33737;94,94620; 12,62717;20,00000;20,00000
974,38045;95,45124; 11,97806;20,00000;20,00000
979,43060;95,95627; 11,49934;20,00000;20,00000
984,47996;96,46130; 11,16840;20,00000;20,00000
989,52752;96,96634; 10,91750;20,00000;20,00000
994,57781;97,47137; 10,70978;20,00000;20,00000
999,63560;97,97640; 10,56059;20,00000;20,00000