File: TGA/MoS2 NS - Sódio.csv
#EXPORTTYPE:                 ;DATA ALL
#FILE:                       ;MoS2 NS - Sõdio.ngb-ds3
#FORMAT:                     ;NETZSCH5
#FTYPE:                      ;ASCII
#IDENTITY:                   ;MoS2 NS - Sõdio
#DECIMAL:                    ;COMMA
#SEPARATOR:                  ;SEMICOLON
#MTYPE:                      ;TG
#INSTRUMENT:                 ;NETZSCH STA 449F3
#PROJECT:                    ;-
#DATE/TIME:                  ;21/11/2024 13:23:36 (UTC-3)
#CORR. FILE:                 ;Correction.ngb-bs3
#TEMPCAL:                    ;Cal_08_2024_Ar_5C.ngb-ts3
#SENSITIVITY:                ;---
#LABORATORY:                 ;Proc de Nanocerümicas
#OPERATOR:                   ;Danilo Janes
#REMARK:                     ;
#SAMPLE:                     ;MoS2 NS - Sõdio
#SAMPLE MASS /mg:            ;12,6370
#MATERIAL:                   ;
#REFERENCE:                  ;
#REFERENCE MASS /mg:         ;
#TYPE OF CRUCIBLE:           ;DTA/TG crucible Al2O3
#SAMPLE CRUCIBLE MASS /mg:   ;0
#REFERENCE CRUCIBLE MASS /mg:;
#TG RANGE /mg:               ;35000
#TAU-R:                      ;---
#CORR. CODE:                 ;020
#EXO:                        ;-1
#RANGE:                      ;20oC/10,0(K/min)/1000oC
#SEGMENT:                    ;S1/1
#SEG. 1:                     ;20oC/10,0(K/min)/1000oC

##Temp./oC;Time/min;Mass/%;Gas Flow(purge1)/(ml/min);Gas Flow(protective)/(ml/min)
 25,80900; 0,00000;100,00000;20,00000;20,00000
 31,80900; 1,70953; 99,93429;20,00000;20,00000
 37,80900; 2,36886; 99,97531;20,00000;20,00000
 43,80900; 2,91032; 99,98491;20,00000;20,00000
 49,80900; 3,40848; 99,91539;20,00000;20,00000
 55,80900; 3,89442; 99,86237;20,00000;20,00000
 61,80900; 4,38453; 99,71286;20,00000;20,00000
 67,80900; 4,89139; 99,54656;20,00000;20,00000
 73,80900; 5,42649; 99,29256;20,00000;20,00000
 79,80900; 5,99418; 99,02223;20,00000;20,00000
 85,80900; 6,58568; 98,77487;20,00000;20,00000
 91,80900; 7,19120; 98,55548;20,00000;20,00000
 97,80900; 7,80474; 98,35939;20,00000;20,00000
103,80900; 8,41715; 98,17158;20,00000;20,00000
109,80900; 9,02934; 98,06847;20,00000;20,00000
115,80900; 9,63725; 97,96409;20,00000;20,00000
121,80900;10,24162; 97,93225;20,00000;20,00000
127,80900;10,84070; 97,91727;20,00000;20,00000
133,80900;11,43237; 97,93463;20,00000;20,00000
139,80900;12,02060; 97,92578;20,00000;20,00000
145,80900;12,61225; 97,90364;20,00000;20,00000
151,80900;13,20708; 97,87318;20,00000;20,00000
157,80900;13,80593; 97,84681;20,00000;20,00000
163,80900;14,40706; 97,84315;20,00000;20,00000
169,80900;15,00915; 97,78354;20,00000;20,00000
175,80900;15,61083; 97,73896;20,00000;20,00000
181,80900;16,21018; 97,63393;20,00000;20,00000
187,80900;16,80541; 97,54000;20,00000;20,00000
193,80900;17,40222; 97,39584;20,00000;20,00000
199,80900;17,99936; 97,24106;20,00000;20,00000
205,80900;18,59862; 97,03998;20,00000;20,00000
211,80900;19,19843; 96,79582;20,00000;20,00000
217,80900;19,79929; 96,53582;20,00000;20,00000
223,80900;20,39992; 96,24362;20,00000;20,00000
229,80900;21,00076; 95,88603;20,00000;20,00000
235,80900;21,60040; 95,47643;20,00000;20,00000
241,80900;22,19941; 95,02770;20,00000;20,00000
247,80900;22,79900; 94,54508;20,00000;20,00000
253,80900;23,39996; 94,00812;20,00000;20,00000
259,80900;23,99945; 93,45810;20,00000;20,00000
265,80900;24,59728; 92,85176;20,00000;20,00000
271,80900;25,19667; 92,19668;20,00000;20,00000
277,80900;25,79988; 91,55357;20,00000;20,00000
283,80900;26,40366; 90,82252;20,00000;20,00000
289,80900;27,01001; 90,12423;20,00000;20,00000
295,80900;27,61099; 89,39996;20,00000;20,00000
301,80900;28,20837; 88,67629;20,00000;20,00000
307,80900;28,80863; 87,96289;20,00000;20,00000
313,80900;29,40880; 87,19123;20,00000;20,00000
319,80900;30,01025; 86,44579;20,00000;20,00000
325,80900;30,61061; 85,72261;20,00000;20,00000
331,80900;31,20947; 85,00667;20,00000;20,00000
337,80900;31,80709; 84,30608;20,00000;20,00000
343,80900;32,40614; 83,63902;20,00000;20,00000
349,80900;33,00512; 82,95347;20,00000;20,00000
355,80900;33,60511; 82,24512;20,00000;20,00000
361,80900;34,20503; 81,55781;20,00000;20,00000
367,80900;34,80594; 80,91878;20,00000;20,00000
373,80900;35,40576; 80,28182;20,00000;20,00000
379,80900;36,00590; 79,58429;20,00000;20,00000
385,80900;36,60573; 78,84026;20,00000;20,00000
391,80900;37,20616; 78,04385;20,00000;20,00000
397,80900;37,80460; 77,20887;20,00000;20,00000
403,80900;38,40518; 76,32324;20,00000;20,00000
409,80900;39,00486; 75,44836;20,00000;20,00000
415,80900;39,60708; 74,53554;20,00000;20,00000
421,80900;40,21024; 73,63263;20,00000;20,00000
427,80900;40,80787; 72,79161;20,00000;20,00000
433,80900;41,40751; 71,90860;20,00000;20,00000
439,80900;42,00662; 70,64478;20,00000;20,00000
445,80900;42,61519; 69,51313;20,00000;20,00000
451,80900;43,21941; 68,84509;20,00000;20,00000
457,80900;43,81656; 68,32883;20,00000;20,00000
463,80900;44,41389; 67,96832;20,00000;20,00000
469,80900;45,01359; 67,73718;20,00000;20,00000
475,80900;45,61903; 67,63243;20,00000;20,00000
481,80900;46,22726; 67,70489;20,00000;20,00000
487,80900;46,83047; 68,16926;20,00000;20,00000
493,80900;47,43501; 68,80121;20,00000;20,00000
499,80900;48,04604; 69,12973;20,00000;20,00000
505,80900;48,64283; 69,27085;20,00000;20,00000
511,80900;49,22397; 69,29435;20,00000;20,00000
517,80900;49,80771; 69,30759;20,00000;20,00000
523,80900;50,40340; 69,32129;20,00000;20,00000
529,80900;51,00637; 69,33501;20,00000;20,00000
535,80900;51,60974; 69,33842;20,00000;20,00000
541,80900;52,20931; 69,37168;20,00000;20,00000
547,80900;52,80660; 69,37722;20,00000;20,00000
553,80900;53,40461; 69,38154;20,00000;20,00000
559,80900;54,00450; 69,38757;20,00000;20,00000
565,80900;54,60705; 69,38199;20,00000;20,00000
571,80900;55,20936; 69,38117;20,00000;20,00000
577,80900;55,80782; 69,39144;20,00000;20,00000
583,80900;56,40555; 69,39272;20,00000;20,00000
589,80900;57,00420; 69,36604;20,00000;20,00000
595,80900;57,60306; 69,36061;20,00000;20,00000
601,80900;58,20358; 69,35903;20,00000;20,00000
607,80900;58,80397; 69,35823;20,00000;20,00000
613,80900;59,40406; 69,35382;20,00000;20,00000
619,80900;60,00408; 69,29726;20,00000;20,00000
625,80900;60,60317; 69,28068;20,00000;20,00000
631,80900;61,20278; 69,27945;20,00000;20,00000
637,80900;61,80301; 69,21475;20,00000;20,00000
643,80900;62,40311; 69,18651;20,00000;20,00000
649,80900;63,00270; 69,17297;20,00000;20,00000
655,80900;63,60253; 69,10952;20,00000;20,00000
661,80900;64,20306; 69,09454;20,00000;20,00000
667,80900;64,80256; 69,03437;20,00000;20,00000
673,80900;65,40208; 69,04630;20,00000;20,00000
679,80900;66,00198; 69,04174;20,00000;20,00000
685,80900;66,60228; 69,02505;20,00000;20,00000
691,80900;67,20318; 69,02036;20,00000;20,00000
697,80900;67,80154; 68,99253;20,00000;20,00000
703,80900;68,40095; 68,98552;20,00000;20,00000
709,80900;68,99994; 68,98868;20,00000;20,00000
715,80900;69,60122; 68,98780;20,00000;20,00000
721,80900;70,20183; 68,98523;20,00000;20,00000
727,80900;70,80086; 68,96261;20,00000;20,00000
733,80900;71,40096; 68,94907;20,00000;20,00000
739,80900;72,00030; 68,91904;20,00000;20,00000
745,80900;72,59991; 68,86524;20,00000;20,00000
751,80900;73,20077; 68,78685;20,00000;20,00000
757,80900;73,80194; 68,66785;20,00000;20,00000
763,80900;74,40372; 68,52984;20,00000;20,00000
769,80900;75,00031; 68,35870;20,00000;20,00000
775,80900;75,58725; 68,13100;20,00000;20,00000
781,80900;76,18704; 67,87081;20,00000;20,00000
787,80900;76,79578; 67,59893;20,00000;20,00000
793,80900;77,40037; 67,28392;20,00000;20,00000
799,80900;77,99833; 66,93661;20,00000;20,00000
805,80900;78,59458; 66,52562;20,00000;20,00000
811,80900;79,19266; 65,97496;20,00000;20,00000
817,80900;79,79450; 65,27713;20,00000;20,00000
823,80900;80,39707; 64,43326;20,00000;20,00000
829,80900;80,99758; 63,46664;20,00000;20,00000
835,80900;81,59581; 62,25179;20,00000;20,00000
841,80900;82,19477; 60,91399;20,00000;20,00000
847,80900;82,79723; 59,58200;20,00000;20,00000
853,80900;83,39944; 58,11126;20,00000;20,00000
859,80900;83,99890; 56,78468;20,00000;20,00000
865,80900;84,59753; 55,50350;20,00000;20,00000
871,80900;85,19686; 54,27560;20,00000;20,00000
877,80900;85,79644; 53,12603;20,00000;20,00000
883,80900;86,39561; 52,02444;20,00000;20,00000
889,80900;86,99684; 50,88381;20,00000;20,00000
895,80900;87,59629; 49,64939;20,00000;20,00000
901,80900;88,19481; 48,28455;20,00000;20,00000
907,80900;88,79462; 46,71987;20,00000;20,00000
913,80900;89,39566; 45,02705;20,00000;20,00000
919,80900;89,99644; 43,11647;20,00000;20,00000
925,80900;90,59731; 40,86704;20,00000;20,00000
931,80900;91,19934; 38,16202;20,00000;20,00000
937,80900;91,80164; 34,67799;20,00000;20,00000
943,80900;92,39833; 30,92036;20,00000;20,00000
949,80900;92,99384; 27,48542;20,00000;20,00000
955,80900;93,59218; 24,09680;20,00000;20,00000
961,80900;94,19304; 21,04273;20,00000;20,00000
967,80900;94,79325; 18,73165;20,00000;20,00000
973,80900;95,39551; 17,11621;20,00000;20,00000
979,80900;95,99587; 16,03234;20,00000;20,00000
985,80900;96,59562; 15,31213;20,00000;20,00000
991,80900;97,19503; 14,81074;20,00000;20,00000
997,80900;97,79430; 14,43844;20,00000;20,00000