File: TGA/SiO2@PDA secagem.csv
#EXPORTTYPE:                 ;DATA ALL
#FILE:                       ;SiO2@PIPSECAGEM60C.ngb-ds3
#FORMAT:                     ;NETZSCH5
#FTYPE:                      ;ASCII
#IDENTITY:                   ;SiO2@PIPSECAGEM60C
#DECIMAL:                    ;COMMA
#SEPARATOR:                  ;SEMICOLON
#MTYPE:                      ;TG
#INSTRUMENT:                 ;NETZSCH STA 449F3
#PROJECT:                    ;-
#DATE/TIME:                  ;19/11/2024 13:25:15 (UTC-3)
#CORR. FILE:                 ;Correction.ngb-bs3
#TEMPCAL:                    ;Cal_08_2024_Ar_5C.ngb-ts3
#SENSITIVITY:                ;---
#LABORATORY:                 ;Proc de Nanocerümicas
#OPERATOR:                   ;Danilo Janes
#REMARK:                     ;
#SAMPLE:                     ;SiO2@PIPSECAGEM60C
#SAMPLE MASS /mg:            ;11,9130
#MATERIAL:                   ;
#REFERENCE:                  ;
#REFERENCE MASS /mg:         ;
#TYPE OF CRUCIBLE:           ;DTA/TG crucible Al2O3
#SAMPLE CRUCIBLE MASS /mg:   ;0
#REFERENCE CRUCIBLE MASS /mg:;
#TG RANGE /mg:               ;35000
#TAU-R:                      ;---
#CORR. CODE:                 ;020
#EXO:                        ;-1
#RANGE:                      ;20oC/10,0(K/min)/1000oC
#SEGMENT:                    ;S1/1
#SEG. 1:                     ;20oC/10,0(K/min)/1000oC

##Temp./oC;Time/min;Mass/%;Gas Flow(purge1)/(ml/min);Gas Flow(protective)/(ml/min)
 26,58200; 0,00000;100,00000;20,00000;20,00000
 26,66940; 0,50503; 99,94274;20,00000;20,00000
 28,01037; 1,01007; 99,69871;20,00000;20,00000
 30,67252; 1,51510; 99,59888;20,00000;20,00000
 34,55032; 2,02013; 99,52981;20,00000;20,00000
 39,40559; 2,52516; 99,45935;20,00000;20,00000
 45,06937; 3,03020; 99,35278;20,00000;20,00000
 51,20580; 3,53523; 99,20618;20,00000;20,00000
 57,45638; 4,04026; 98,93032;20,00000;20,00000
 63,62359; 4,54530; 98,48881;20,00000;20,00000
 69,51750; 5,05033; 97,85905;20,00000;20,00000
 75,09662; 5,55536; 97,12147;20,00000;20,00000
 80,40225; 6,06040; 96,28983;20,00000;20,00000
 85,53847; 6,56543; 95,43803;20,00000;20,00000
 90,55367; 7,07046; 94,56551;20,00000;20,00000
 95,53959; 7,57549; 93,71691;20,00000;20,00000
100,51574; 8,08053; 92,89344;20,00000;20,00000
105,49732; 8,58556; 92,16436;20,00000;20,00000
110,47935; 9,09059; 91,49254;20,00000;20,00000
115,47309; 9,59563; 90,91460;20,00000;20,00000
120,49365;10,10066; 90,35913;20,00000;20,00000
125,52067;10,60569; 89,91607;20,00000;20,00000
130,58497;11,11073; 89,52080;20,00000;20,00000
135,67229;11,61576; 89,18011;20,00000;20,00000
140,77525;12,12079; 88,85957;20,00000;20,00000
145,88468;12,62583; 88,58688;20,00000;20,00000
150,96413;13,13086; 88,37707;20,00000;20,00000
156,06030;13,63589; 88,21403;20,00000;20,00000
161,11372;14,14092; 88,08848;20,00000;20,00000
166,17202;14,64596; 87,97602;20,00000;20,00000
171,20736;15,15099; 87,86020;20,00000;20,00000
176,21772;15,65602; 87,77129;20,00000;20,00000
181,26036;16,16106; 87,68056;20,00000;20,00000
186,32449;16,66609; 87,59318;20,00000;20,00000
191,40458;17,17112; 87,49408;20,00000;20,00000
196,47795;17,67616; 87,39433;20,00000;20,00000
201,54694;18,18119; 87,30104;20,00000;20,00000
206,60660;18,68622; 87,19841;20,00000;20,00000
211,64762;19,19125; 87,09459;20,00000;20,00000
216,70158;19,69629; 86,99170;20,00000;20,00000
221,74803;20,20132; 86,90402;20,00000;20,00000
226,79629;20,70635; 86,81408;20,00000;20,00000
231,84336;21,21139; 86,70598;20,00000;20,00000
236,92131;21,71642; 86,58267;20,00000;20,00000
241,98769;22,22145; 86,43952;20,00000;20,00000
247,02717;22,72648; 86,31413;20,00000;20,00000
252,06076;23,23152; 86,19702;20,00000;20,00000
257,10757;23,73655; 86,04778;20,00000;20,00000
262,15447;24,24158; 85,88627;20,00000;20,00000
267,20984;24,74662; 85,70479;20,00000;20,00000
272,25687;25,25165; 85,52705;20,00000;20,00000
277,34521;25,75668; 85,34838;20,00000;20,00000
282,37512;26,26172; 85,15853;20,00000;20,00000
287,42458;26,76675; 84,95270;20,00000;20,00000
292,45168;27,27178; 84,74322;20,00000;20,00000
297,50184;27,77681; 84,55319;20,00000;20,00000
302,53030;28,28185; 84,30998;20,00000;20,00000
307,58546;28,78688; 84,05158;20,00000;20,00000
312,62909;29,29191; 83,77702;20,00000;20,00000
317,69560;29,79695; 83,50835;20,00000;20,00000
322,75015;30,30198; 83,21604;20,00000;20,00000
327,82886;30,80701; 82,91182;20,00000;20,00000
332,88365;31,31205; 82,63429;20,00000;20,00000
337,92180;31,81708; 82,32182;20,00000;20,00000
342,98723;32,32211; 81,99002;20,00000;20,00000
348,04785;32,82714; 81,64548;20,00000;20,00000
353,08833;33,33218; 81,30440;20,00000;20,00000
358,12615;33,83721; 80,88349;20,00000;20,00000
363,15426;34,34224; 80,48365;20,00000;20,00000
368,19750;34,84728; 80,10075;20,00000;20,00000
373,24205;35,35231; 79,73323;20,00000;20,00000
378,29252;35,85734; 79,30827;20,00000;20,00000
383,34835;36,36238; 78,90981;20,00000;20,00000
388,37657;36,86741; 78,52954;20,00000;20,00000
393,44437;37,37244; 78,12072;20,00000;20,00000
398,47951;37,87748; 77,69416;20,00000;20,00000
403,53447;38,38251; 77,31039;20,00000;20,00000
408,57046;38,88754; 76,89862;20,00000;20,00000
413,62915;39,39257; 76,47317;20,00000;20,00000
418,68586;39,89761; 76,05784;20,00000;20,00000
423,75160;40,40264; 75,64218;20,00000;20,00000
428,80081;40,90767; 75,24369;20,00000;20,00000
433,84581;41,41271; 74,82910;20,00000;20,00000
438,89243;41,91774; 74,41483;20,00000;20,00000
443,94233;42,42277; 73,99309;20,00000;20,00000
449,00172;42,92781; 73,55368;20,00000;20,00000
454,05880;43,43284; 73,13595;20,00000;20,00000
459,08740;43,93787; 72,71741;20,00000;20,00000
464,13106;44,44290; 72,28880;20,00000;20,00000
469,16901;44,94794; 71,87193;20,00000;20,00000
474,22693;45,45297; 71,43692;20,00000;20,00000
479,27674;45,95800; 70,99816;20,00000;20,00000
484,32766;46,46304; 70,57119;20,00000;20,00000
489,38472;46,96807; 70,13429;20,00000;20,00000
494,43651;47,47310; 69,73070;20,00000;20,00000
499,48911;47,97814; 69,30158;20,00000;20,00000
504,53410;48,48317; 68,84407;20,00000;20,00000
509,58879;48,98820; 68,42761;20,00000;20,00000
514,62688;49,49323; 68,01383;20,00000;20,00000
519,66855;49,99827; 67,60968;20,00000;20,00000
524,70321;50,50330; 67,17987;20,00000;20,00000
529,77637;51,00833; 66,80124;20,00000;20,00000
534,83745;51,51337; 66,41437;20,00000;20,00000
539,89505;52,01840; 66,03793;20,00000;20,00000
544,94422;52,52343; 65,64160;20,00000;20,00000
549,98176;53,02847; 65,27805;20,00000;20,00000
555,00904;53,53350; 64,89973;20,00000;20,00000
560,05127;54,03853; 64,53856;20,00000;20,00000
565,11613;54,54356; 64,18467;20,00000;20,00000
570,19130;55,04860; 63,84010;20,00000;20,00000
575,24943;55,55363; 63,50028;20,00000;20,00000
580,30822;56,05866; 63,17985;20,00000;20,00000
585,35649;56,56370; 62,88050;20,00000;20,00000
590,42498;57,06873; 62,57428;20,00000;20,00000
595,48398;57,57376; 62,27910;20,00000;20,00000
600,52461;58,07880; 61,96968;20,00000;20,00000
605,56706;58,58383; 61,69643;20,00000;20,00000
610,61374;59,08886; 61,40447;20,00000;20,00000
615,68670;59,59389; 61,11761;20,00000;20,00000
620,74600;60,09893; 60,85246;20,00000;20,00000
625,77810;60,60396; 60,59260;20,00000;20,00000
630,83470;61,10899; 60,31272;20,00000;20,00000
635,88198;61,61403; 60,04262;20,00000;20,00000
640,92007;62,11906; 59,77963;20,00000;20,00000
645,99303;62,62409; 59,54099;20,00000;20,00000
651,04574;63,12913; 59,27582;20,00000;20,00000
656,10096;63,63416; 59,00794;20,00000;20,00000
661,18784;64,13919; 58,76148;20,00000;20,00000
666,25188;64,64422; 58,51131;20,00000;20,00000
671,30539;65,14926; 58,26596;20,00000;20,00000
676,37897;65,65429; 57,97343;20,00000;20,00000
681,46179;66,15932; 57,60399;20,00000;20,00000
686,41359;66,66436; 57,34053;20,00000;20,00000
691,37206;67,16939; 57,24594;20,00000;20,00000
696,41603;67,67442; 57,19990;20,00000;20,00000
701,51933;68,17946; 57,16362;20,00000;20,00000
706,63136;68,68449; 57,13543;20,00000;20,00000
711,70003;69,18952; 57,12582;20,00000;20,00000
716,75082;69,69455; 57,09728;20,00000;20,00000
721,77475;70,19959; 57,08388;20,00000;20,00000
726,80514;70,70462; 57,06003;20,00000;20,00000
731,83250;71,20965; 57,05617;20,00000;20,00000
736,88770;71,71469; 57,05464;20,00000;20,00000
741,95606;72,21972; 57,03603;20,00000;20,00000
747,03897;72,72475; 57,01465;20,00000;20,00000
752,12285;73,22979; 56,99573;20,00000;20,00000
757,16975;73,73482; 56,99196;20,00000;20,00000
762,23155;74,23985; 56,96718;20,00000;20,00000
767,27182;74,74488; 56,97419;20,00000;20,00000
772,32210;75,24992; 56,95878;20,00000;20,00000
777,35857;75,75495; 56,93867;20,00000;20,00000
782,40283;76,25998; 56,91765;20,00000;20,00000
787,45887;76,76502; 56,88399;20,00000;20,00000
792,53053;77,27005; 56,89751;20,00000;20,00000
797,57310;77,77508; 56,88283;20,00000;20,00000
802,64619;78,28012; 56,86729;20,00000;20,00000
807,70317;78,78515; 56,86097;20,00000;20,00000
812,72770;79,29018; 56,81523;20,00000;20,00000
817,77117;79,79521; 56,78738;20,00000;20,00000
822,82837;80,30025; 56,76739;20,00000;20,00000
827,89462;80,80528; 56,78867;20,00000;20,00000
832,94531;81,31031; 56,75730;20,00000;20,00000
837,98572;81,81535; 56,74934;20,00000;20,00000
843,04360;82,32038; 56,74557;20,00000;20,00000
848,08466;82,82541; 56,73950;20,00000;20,00000
853,15231;83,33045; 56,70698;20,00000;20,00000
858,21313;83,83548; 56,69558;20,00000;20,00000
863,25543;84,34051; 56,66748;20,00000;20,00000
868,30170;84,84554; 56,65743;20,00000;20,00000
873,31652;85,35058; 56,64230;20,00000;20,00000
878,35198;85,85561; 56,60953;20,00000;20,00000
883,41441;86,36064; 56,60459;20,00000;20,00000
888,48828;86,86568; 56,59776;20,00000;20,00000
893,56646;87,37071; 56,59028;20,00000;20,00000
898,60800;87,87574; 56,55857;20,00000;20,00000
903,66310;88,38078; 56,55486;20,00000;20,00000
908,71671;88,88581; 56,53152;20,00000;20,00000
913,77589;89,39084; 56,52653;20,00000;20,00000
918,82331;89,89587; 56,51715;20,00000;20,00000
923,87287;90,40091; 56,53152;20,00000;20,00000
928,92082;90,90594; 56,50930;20,00000;20,00000
933,97515;91,41097; 56,50798;20,00000;20,00000
939,01510;91,91601; 56,49123;20,00000;20,00000
944,06639;92,42104; 56,46935;20,00000;20,00000
949,13344;92,92607; 56,47699;20,00000;20,00000
954,19655;93,43111; 56,46613;20,00000;20,00000
959,25061;93,93614; 56,46402;20,00000;20,00000
964,29717;94,44117; 56,43492;20,00000;20,00000
969,34001;94,94620; 56,43622;20,00000;20,00000
974,38792;95,45124; 56,41318;20,00000;20,00000
979,43712;95,95627; 56,39279;20,00000;20,00000
984,49051;96,46130; 56,37278;20,00000;20,00000
989,53417;96,96634; 56,37106;20,00000;20,00000
994,57578;97,47137; 56,36364;20,00000;20,00000
999,63901;97,97640; 56,35301;20,00000;20,00000