File: FTIR/MoS2_3H_1.txt
##TITLE=No Description
##DATA TYPE=INFRARED SPECTRUM
##XUNITS=1/CM
##YUNITS=%T
399.452  	79.1788
412.384  	71.2937
425.316  	65.6392
438.248  	72.5442
451.18  	73.4046
464.112  	73.2023
477.043  	71.4455
489.975  	68.1803
502.907  	73.6959
515.839  	74.6846
528.771  	74.8967
541.703  	74.9383
554.635  	74.1191
567.567  	73.2523
580.499  	72.4266
593.431  	71.6583
606.362  	71.4391
619.294  	71.2236
632.226  	70.9757
645.158  	71.7121
658.09  	72.7225
671.022  	73.9202
683.954  	75.4318
696.886  	77.0862
709.818  	78.6694
722.75  	80.4331
735.681  	82.0268
748.613  	83.6155
761.545  	85.1688
774.477  	86.6767
787.409  	87.9356
800.341  	88.1793
813.273  	66.1498
826.205  	87.5672
839.137  	91.3603
852.069  	92.3058
865.001  	92.703
877.932  	92.8563
890.864  	92.5179
903.796  	91.4601
916.728  	88.2893
929.66  	81.1531
942.592  	54.448
955.524  	47.8697
968.456  	88.9742
981.388  	92.2048
994.32  	93.4427
1007.25  	93.5486
1020.18  	93.3565
1033.12  	92.9221
1046.05  	92.083
1058.98  	90.4675
1071.91  	87.1698
1084.84  	79.7669
1097.77  	64.3828
1110.71  	58.5219
1123.64  	55.1883
1136.57  	65.9699
1149.5  	69.7755
1162.43  	61.0189
1175.37  	87.6058
1188.3  	90.9531
1201.23  	92.0237
1214.16  	91.8917
1227.09  	91.4335
1240.03  	90.9498
1252.96  	89.8427
1265.89  	88.2211
1278.82  	84.4271
1291.75  	77.8523
1304.69  	73.6859
1317.62  	76.212
1330.55  	82.3207
1343.48  	79.8699
1356.41  	82.9182
1369.34  	69.759
1382.28  	69.6564
1395.21  	82.6407
1408.14  	80.6539
1421.07  	83.2452
1434  	85.435
1446.94  	86.2334
1459.87  	81.1324
1472.8  	82.5974
1485.73  	89.4454
1498.66  	91.6206
1511.6  	92.696
1524.53  	93.2099
1537.46  	93.4931
1550.39  	93.6581
1563.32  	93.8068
1576.26  	93.8792
1589.19  	93.8636
1602.12  	93.799
1615.05  	93.737
1627.98  	93.5232
1640.91  	93.4045
1653.85  	93.3179
1666.78  	93.302
1679.71  	93.3642
1692.64  	93.5362
1705.57  	93.335
1718.51  	93.3563
1731.44  	93.4203
1744.37  	93.3599
1757.3  	93.1444
1770.23  	92.9023
1783.17  	93.4086
1796.1  	93.4972
1809.03  	93.5482
1821.96  	93.55
1834.89  	93.4237
1847.83  	93.448
1860.76  	93.4037
1873.69  	93.3952
1886.62  	93.3105
1899.55  	93.3477
1912.48  	93.394
1925.42  	93.3286
1938.35  	93.1726
1951.28  	93.2612
1964.21  	93.0504
1977.14  	93.4016
1990.08  	93.4614
2003.01  	93.3839
2015.94  	93.5431
2028.87  	93.6363
2041.8  	93.4709
2054.74  	93.2339
2067.67  	93.0053
2080.6  	92.8633
2093.53  	93.0159
2106.46  	92.9833
2119.39  	92.8781
2132.33  	93.033
2145.26  	93.2707
2158.19  	93.7144
2171.12  	93.657
2184.05  	92.9156
2196.99  	93.003
2209.92  	93.0028
2222.85  	92.9123
2235.78  	92.9341
2248.71  	92.8634
2261.65  	92.55
2274.58  	92.3287
2287.51  	92.1401
2300.44  	92.226
2313.37  	92.1036
2326.31  	92.1841
2339.24  	92.1034
2352.17  	92.0742
2365.1  	91.9222
2378.03  	91.7141
2390.96  	91.6488
2403.9  	91.5832
2416.83  	91.5215
2429.76  	91.679
2442.69  	91.7601
2455.62  	91.5656
2468.56  	91.424
2481.49  	91.396
2494.42  	91.2602
2507.35  	91.0313
2520.28  	90.9189
2533.22  	90.9619
2546.15  	91.0239
2559.08  	90.9434
2572.01  	90.6665
2584.94  	90.4911
2597.88  	90.4277
2610.81  	90.4239
2623.74  	90.3609
2636.67  	90.2067
2649.6  	89.6242
2662.53  	89.3294
2675.47  	89.9263
2688.4  	89.7511
2701.33  	89.3845
2714.26  	89.151
2727.19  	89.1171
2740.13  	89.2428
2753.06  	89.1534
2765.99  	88.8528
2778.92  	88.5553
2791.85  	88.2728
2804.79  	87.8397
2817.72  	87.3218
2830.65  	86.6743
2843.58  	85.5371
2856.51  	83.4137
2869.45  	80.9
2882.38  	78.7328
2895.31  	80.0824
2908.24  	80.7398
2921.17  	79.8165
2934.1  	78.9206
2947.04  	81.2801
2959.97  	71.908
2972.9  	58.2838
2985.83  	81.8535
2998.76  	88.1942
3011.7  	89.2458
3024.63  	89.5858
3037.56  	89.4924
3050.49  	89.3216
3063.42  	89.1128
3076.36  	88.7506
3089.29  	88.3628
3102.22  	87.8191
3115.15  	87.3526
3128.08  	86.6652
3141.02  	85.9455
3153.95  	85.0538
3166.88  	84.0461
3179.81  	82.8738
3192.74  	81.4364
3205.67  	80.043
3218.61  	78.6282
3231.54  	77.0728
3244.47  	75.6278
3257.4  	74.3571
3270.33  	73.2617
3283.27  	72.3887
3296.2  	71.6387
3309.13  	71.105
3322.06  	70.9051
3334.99  	70.9004
3347.93  	71.1442
3360.86  	72.0583
3373.79  	73.3289
3386.72  	74.7097
3399.65  	76.2882
3412.59  	77.8908
3425.52  	79.4588
3438.45  	81.0109
3451.38  	82.5761
3464.31  	83.872
3477.24  	85.206
3490.18  	86.3842
3503.11  	87.4655
3516.04  	88.3863
3528.97  	89.0765
3541.9  	89.8158
3554.84  	90.3131
3567.77  	90.6259
3580.7  	91.1102
3593.63  	91.4308
3606.56  	91.4587
3619.5  	91.66
3632.43  	91.7317
3645.36  	91.7526
3658.29  	91.9411
3671.22  	92.008
3684.15  	91.9827
3697.09  	92.0453
3710.02  	92.0101
3722.95  	92.0532
3735.88  	91.9314
3748.81  	91.8876
3761.75  	91.9113
3774.68  	91.8866
3787.61  	91.8329
3800.54  	91.7981
3813.47  	91.8057
3826.41  	91.9082
3839.34  	91.8356
3852.27  	91.655
3865.2  	91.7466
3878.13  	91.7793
3891.07  	91.7365
3904  	91.711
3916.93  	91.7647
3929.86  	91.7331
3942.79  	91.6852
3955.72  	91.7998
3968.66  	91.7011
3981.59  	91.7018
3994.52  	91.6979
4000.27  	91.7767