File: FTIR/MoS2_2H_1.txt
##TITLE=No Description
##DATA TYPE=INFRARED SPECTRUM
##XUNITS=1/CM
##YUNITS=%T
399.452  	77.367
412.384  	72.855
425.316  	67.8601
438.248  	72.8735
451.18  	73.1525
464.112  	74.3899
477.043  	72.3697
489.975  	68.6017
502.907  	74.4579
515.839  	75.3464
528.771  	75.5643
541.703  	75.367
554.635  	74.7438
567.567  	73.4969
580.499  	72.5748
593.431  	72.031
606.362  	71.625
619.294  	71.3009
632.226  	71.2617
645.158  	71.8303
658.09  	72.7384
671.022  	73.9685
683.954  	75.597
696.886  	77.1784
709.818  	78.7947
722.75  	80.383
735.681  	82.068
748.613  	83.6608
761.545  	85.1275
774.477  	86.5766
787.409  	87.7758
800.341  	87.8343
813.273  	65.6261
826.205  	87.287
839.137  	91.133
852.069  	91.9535
865.001  	92.3596
877.932  	92.4029
890.864  	91.9826
903.796  	90.824
916.728  	87.5245
929.66  	80.3095
942.592  	53.9811
955.524  	47.6807
968.456  	88.7814
981.388  	91.9438
994.32  	93.1268
1007.25  	93.2774
1020.18  	92.9384
1033.12  	92.4118
1046.05  	91.467
1058.98  	89.7665
1071.91  	86.4578
1084.84  	79.0643
1097.77  	63.9461
1110.71  	58.2233
1123.64  	54.9424
1136.57  	65.8605
1149.5  	69.4997
1162.43  	60.859
1175.37  	87.3946
1188.3  	90.6673
1201.23  	91.6807
1214.16  	91.5124
1227.09  	91.0464
1240.03  	90.5072
1252.96  	89.3332
1265.89  	87.6662
1278.82  	83.8355
1291.75  	77.3312
1304.69  	73.2051
1317.62  	75.6836
1330.55  	81.7613
1343.48  	79.3787
1356.41  	82.3166
1369.34  	69.3475
1382.28  	69.4115
1395.21  	82.2004
1408.14  	80.1513
1421.07  	82.6421
1434  	84.8213
1446.94  	85.6078
1459.87  	80.6091
1472.8  	82.2133
1485.73  	88.9924
1498.66  	91.1406
1511.6  	92.0651
1524.53  	92.6123
1537.46  	92.9505
1550.39  	93.0785
1563.32  	93.1794
1576.26  	93.313
1589.19  	93.2955
1602.12  	93.2026
1615.05  	93.0769
1627.98  	92.9265
1640.91  	92.72
1653.85  	92.5457
1666.78  	92.6879
1679.71  	92.8619
1692.64  	92.8894
1705.57  	92.5929
1718.51  	92.5836
1731.44  	92.8193
1744.37  	92.6577
1757.3  	92.4032
1770.23  	92.2136
1783.17  	92.68
1796.1  	92.7153
1809.03  	92.7873
1821.96  	92.802
1834.89  	92.7679
1847.83  	92.6901
1860.76  	92.7052
1873.69  	92.6836
1886.62  	92.6163
1899.55  	92.5493
1912.48  	92.5764
1925.42  	92.4572
1938.35  	92.3118
1951.28  	92.4753
1964.21  	92.4892
1977.14  	92.33
1990.08  	92.447
2003.01  	92.6494
2015.94  	92.2158
2028.87  	92.6847
2041.8  	92.6122
2054.74  	92.3583
2067.67  	92.3388
2080.6  	92.2036
2093.53  	92.1709
2106.46  	92.1095
2119.39  	92.085
2132.33  	92.2346
2145.26  	92.3345
2158.19  	92.5208
2171.12  	92.6505
2184.05  	92.4179
2196.99  	92.2829
2209.92  	92.3781
2222.85  	92.2777
2235.78  	92.2006
2248.71  	92.1811
2261.65  	92.0741
2274.58  	91.8668
2287.51  	91.6663
2300.44  	91.5174
2313.37  	91.3918
2326.31  	91.4306
2339.24  	91.4678
2352.17  	91.547
2365.1  	91.3348
2378.03  	91.0666
2390.96  	91.1009
2403.9  	90.9829
2416.83  	90.9035
2429.76  	91.0225
2442.69  	91.0645
2455.62  	90.9875
2468.56  	90.9115
2481.49  	90.8427
2494.42  	90.6194
2507.35  	90.4345
2520.28  	90.39
2533.22  	90.3558
2546.15  	90.4548
2559.08  	90.3033
2572.01  	90.0224
2584.94  	89.9707
2597.88  	89.923
2610.81  	89.9364
2623.74  	90.0036
2636.67  	89.8009
2649.6  	89.1741
2662.53  	88.9435
2675.47  	89.4762
2688.4  	89.3409
2701.33  	88.8733
2714.26  	88.7377
2727.19  	88.6729
2740.13  	88.8159
2753.06  	88.7069
2765.99  	88.4683
2778.92  	88.171
2791.85  	87.8605
2804.79  	87.4333
2817.72  	86.9411
2830.65  	86.3092
2843.58  	85.2337
2856.51  	83.2208
2869.45  	80.7118
2882.38  	78.563
2895.31  	79.9483
2908.24  	80.622
2921.17  	79.7343
2934.1  	78.8133
2947.04  	81.1068
2959.97  	71.9272
2972.9  	58.3398
2985.83  	81.6784
2998.76  	87.9468
3011.7  	88.996
3024.63  	89.1397
3037.56  	89.137
3050.49  	88.9445
3063.42  	88.6454
3076.36  	88.3571
3089.29  	87.9472
3102.22  	87.5247
3115.15  	86.9971
3128.08  	86.2728
3141.02  	85.5747
3153.95  	84.6692
3166.88  	83.6103
3179.81  	82.3713
3192.74  	81.0113
3205.67  	79.6572
3218.61  	78.1889
3231.54  	76.6156
3244.47  	75.2396
3257.4  	74.0723
3270.33  	72.9224
3283.27  	72.0647
3296.2  	71.3113
3309.13  	70.895
3322.06  	70.7107
3334.99  	70.7476
3347.93  	71.1449
3360.86  	72.0178
3373.79  	73.1665
3386.72  	74.6653
3399.65  	76.209
3412.59  	77.8486
3425.52  	79.479
3438.45  	80.9903
3451.38  	82.3438
3464.31  	83.6232
3477.24  	85.0979
3490.18  	86.2739
3503.11  	87.3706
3516.04  	88.1915
3528.97  	88.8859
3541.9  	89.6564
3554.84  	90.1636
3567.77  	90.503
3580.7  	90.9571
3593.63  	91.2439
3606.56  	91.552
3619.5  	91.3376
3632.43  	91.5481
3645.36  	91.7313
3658.29  	91.9559
3671.22  	91.7647
3684.15  	91.6866
3697.09  	91.7419
3710.02  	91.9103
3722.95  	91.8752
3735.88  	92.016
3748.81  	91.8289
3761.75  	91.9936
3774.68  	91.9639
3787.61  	91.7887
3800.54  	91.9209
3813.47  	91.6693
3826.41  	91.5369
3839.34  	91.7613
3852.27  	91.9352
3865.2  	91.7949
3878.13  	91.7613
3891.07  	91.7662
3904  	91.7701
3916.93  	91.7881
3929.86  	91.8711
3942.79  	91.7857
3955.72  	91.7609
3968.66  	91.7492
3981.59  	91.72
3994.52  	91.6893
4000.27  	91.7513