File: FTIR/MoS2_1H_1.txt
##TITLE=No Description
##DATA TYPE=INFRARED SPECTRUM
##XUNITS=1/CM
##YUNITS=%T
399.452  	71.1146
412.384  	66.9489
425.316  	63.7997
438.248  	69.1781
451.18  	71.0827
464.112  	70.7007
477.043  	69.1738
489.975  	65.5111
502.907  	70.732
515.839  	71.8737
528.771  	71.6294
541.703  	71.5957
554.635  	71.0881
567.567  	69.726
580.499  	68.6817
593.431  	68.1344
606.362  	67.9819
619.294  	67.8249
632.226  	67.8429
645.158  	68.4679
658.09  	69.5067
671.022  	70.8467
683.954  	72.5239
696.886  	74.1322
709.818  	75.8144
722.75  	77.4787
735.681  	79.2171
748.613  	80.8881
761.545  	82.3817
774.477  	83.8589
787.409  	84.9646
800.341  	84.4849
813.273  	60.7488
826.205  	85.2633
839.137  	88.8789
852.069  	89.521
865.001  	89.6657
877.932  	89.4523
890.864  	88.6272
903.796  	86.8989
916.728  	82.8949
929.66  	74.7021
942.592  	48.3524
955.524  	45.4522
968.456  	87.1238
981.388  	90.0717
994.32  	91.0931
1007.25  	90.7708
1020.18  	90.0407
1033.12  	89.0841
1046.05  	87.5649
1058.98  	85.4762
1071.91  	81.5031
1084.84  	73.5664
1097.77  	58.6523
1110.71  	53.994
1123.64  	50.7726
1136.57  	62.7186
1149.5  	65.8222
1162.43  	57.769
1175.37  	85.372
1188.3  	88.4697
1201.23  	89.2921
1214.16  	88.8082
1227.09  	88.0671
1240.03  	87.3153
1252.96  	85.8118
1265.89  	83.7965
1278.82  	79.5745
1291.75  	72.9037
1304.69  	69.1428
1317.62  	72.0418
1330.55  	78.1377
1343.48  	75.7161
1356.41  	78.071
1369.34  	65.3525
1382.28  	65.8059
1395.21  	79.0157
1408.14  	76.7698
1421.07  	79.4541
1434  	81.5771
1446.94  	82.1202
1459.87  	76.9531
1472.8  	79.1201
1485.73  	86.1312
1498.66  	88.233
1511.6  	89.205
1524.53  	89.6006
1537.46  	89.781
1550.39  	89.8721
1563.32  	89.9067
1576.26  	89.8487
1589.19  	89.7405
1602.12  	89.6139
1615.05  	89.4505
1627.98  	89.1614
1640.91  	88.9307
1653.85  	88.889
1666.78  	88.7774
1679.71  	88.9152
1692.64  	88.9575
1705.57  	88.6409
1718.51  	88.7021
1731.44  	88.8274
1744.37  	88.6781
1757.3  	88.4468
1770.23  	88.1941
1783.17  	88.7307
1796.1  	88.7648
1809.03  	88.7909
1821.96  	88.7809
1834.89  	88.7097
1847.83  	88.6952
1860.76  	88.5626
1873.69  	88.5197
1886.62  	88.5567
1899.55  	88.4786
1912.48  	88.5009
1925.42  	88.3595
1938.35  	88.4251
1951.28  	88.5654
1964.21  	88.8174
1977.14  	88.3289
1990.08  	88.2394
2003.01  	88.5422
2015.94  	88.1834
2028.87  	88.5764
2041.8  	88.0587
2054.74  	87.9912
2067.67  	87.7384
2080.6  	87.7456
2093.53  	87.703
2106.46  	87.6483
2119.39  	87.6663
2132.33  	88.1719
2145.26  	87.8219
2158.19  	87.8216
2171.12  	87.8813
2184.05  	87.4392
2196.99  	87.502
2209.92  	87.3843
2222.85  	87.5042
2235.78  	87.3909
2248.71  	87.1469
2261.65  	87.0684
2274.58  	86.9232
2287.51  	86.8988
2300.44  	86.8637
2313.37  	86.749
2326.31  	86.8728
2339.24  	86.9523
2352.17  	86.8445
2365.1  	86.6239
2378.03  	86.489
2390.96  	86.4208
2403.9  	86.3074
2416.83  	86.3422
2429.76  	86.426
2442.69  	86.4737
2455.62  	86.403
2468.56  	86.2603
2481.49  	86.0976
2494.42  	85.9976
2507.35  	85.8488
2520.28  	85.7296
2533.22  	85.7018
2546.15  	85.7508
2559.08  	85.6159
2572.01  	85.4027
2584.94  	85.2666
2597.88  	85.2863
2610.81  	85.3224
2623.74  	85.311
2636.67  	85.0629
2649.6  	84.6186
2662.53  	84.4513
2675.47  	85.0309
2688.4  	84.8317
2701.33  	84.4537
2714.26  	84.3162
2727.19  	84.2558
2740.13  	84.3576
2753.06  	84.2446
2765.99  	84.0437
2778.92  	83.7211
2791.85  	83.421
2804.79  	82.9922
2817.72  	82.4532
2830.65  	81.8326
2843.58  	80.7393
2856.51  	78.731
2869.45  	76.3979
2882.38  	74.5348
2895.31  	75.9097
2908.24  	76.5327
2921.17  	75.5848
2934.1  	74.8678
2947.04  	76.9802
2959.97  	67.6355
2972.9  	55.7567
2985.83  	78.735
2998.76  	84.505
3011.7  	85.3537
3024.63  	85.5053
3037.56  	85.3767
3050.49  	85.1796
3063.42  	84.8564
3076.36  	84.5539
3089.29  	84.1205
3102.22  	83.6511
3115.15  	83.0409
3128.08  	82.2878
3141.02  	81.6329
3153.95  	80.6976
3166.88  	79.7509
3179.81  	78.587
3192.74  	77.3582
3205.67  	75.959
3218.61  	74.557
3231.54  	73.0694
3244.47  	71.6644
3257.4  	70.5996
3270.33  	69.6004
3283.27  	68.9238
3296.2  	68.3223
3309.13  	67.8339
3322.06  	67.7577
3334.99  	67.8074
3347.93  	68.1982
3360.86  	69.1344
3373.79  	70.279
3386.72  	71.8732
3399.65  	73.3757
3412.59  	74.9439
3425.52  	76.559
3438.45  	78.0442
3451.38  	79.491
3464.31  	80.7906
3477.24  	82.1641
3490.18  	83.3946
3503.11  	84.2133
3516.04  	85.2301
3528.97  	86.0918
3541.9  	86.6237
3554.84  	87.1284
3567.77  	87.449
3580.7  	87.8467
3593.63  	88.0561
3606.56  	88.3002
3619.5  	88.3656
3632.43  	88.4911
3645.36  	88.5174
3658.29  	88.76
3671.22  	88.7335
3684.15  	88.7292
3697.09  	88.749
3710.02  	88.7628
3722.95  	88.8061
3735.88  	88.6586
3748.81  	88.7273
3761.75  	88.7308
3774.68  	88.7256
3787.61  	88.7448
3800.54  	88.6937
3813.47  	88.7667
3826.41  	88.7304
3839.34  	88.6857
3852.27  	88.7017
3865.2  	88.6488
3878.13  	88.6569
3891.07  	88.8289
3904  	88.6608
3916.93  	88.7911
3929.86  	88.8063
3942.79  	88.7488
3955.72  	88.7708
3968.66  	88.8156
3981.59  	88.7689
3994.52  	88.734
4000.27  	88.7545