File: FTIR/MoS2_4H_1.txt
##TITLE=No Description
##DATA TYPE=INFRARED SPECTRUM
##XUNITS=1/CM
##YUNITS=%T
399.452  	74.7092
412.384  	71.4151
425.316  	64.8736
438.248  	70.7753
451.18  	72.978
464.112  	72.5231
477.043  	71.3148
489.975  	67.3788
502.907  	73.4709
515.839  	74.3313
528.771  	74.7686
541.703  	74.9671
554.635  	74.5831
567.567  	73.6654
580.499  	72.5394
593.431  	72.0848
606.362  	71.7606
619.294  	71.5678
632.226  	71.4189
645.158  	71.9176
658.09  	72.9697
671.022  	74.1986
683.954  	75.6794
696.886  	77.2981
709.818  	79.0046
722.75  	80.6979
735.681  	82.2021
748.613  	83.8341
761.545  	85.3456
774.477  	86.894
787.409  	88.2421
800.341  	88.4884
813.273  	66.9956
826.205  	87.8703
839.137  	91.6299
852.069  	92.5449
865.001  	93.0291
877.932  	93.1676
890.864  	92.9386
903.796  	92.0295
916.728  	89.1437
929.66  	82.3499
942.592  	55.59
955.524  	48.4527
968.456  	89.2041
981.388  	92.4009
994.32  	93.6825
1007.25  	93.905
1020.18  	93.7647
1033.12  	93.3376
1046.05  	92.5323
1058.98  	91.0924
1071.91  	87.94
1084.84  	80.7262
1097.77  	65.3341
1110.71  	59.3886
1123.64  	55.9915
1136.57  	66.5964
1149.5  	70.4719
1162.43  	61.6763
1175.37  	87.9839
1188.3  	91.3692
1201.23  	92.4278
1214.16  	92.3249
1227.09  	91.8873
1240.03  	91.4937
1252.96  	90.4231
1265.89  	88.8522
1278.82  	85.1458
1291.75  	78.6726
1304.69  	74.4697
1317.62  	76.9153
1330.55  	82.9912
1343.48  	80.5577
1356.41  	83.6487
1369.34  	70.5391
1382.28  	70.2424
1395.21  	83.2273
1408.14  	81.2651
1421.07  	83.8251
1434  	86.0295
1446.94  	86.8973
1459.87  	81.8389
1472.8  	83.2288
1485.73  	90.0006
1498.66  	92.1532
1511.6  	93.209
1524.53  	93.7614
1537.46  	94.0588
1550.39  	94.2504
1563.32  	94.4315
1576.26  	94.5249
1589.19  	94.4863
1602.12  	94.4586
1615.05  	94.4222
1627.98  	94.221
1640.91  	94.0115
1653.85  	94.0899
1666.78  	94.0385
1679.71  	94.1743
1692.64  	94.2538
1705.57  	94.0695
1718.51  	94.145
1731.44  	94.2242
1744.37  	94.139
1757.3  	93.9274
1770.23  	93.7365
1783.17  	94.219
1796.1  	94.3214
1809.03  	94.3691
1821.96  	94.3537
1834.89  	94.3209
1847.83  	94.383
1860.76  	94.3191
1873.69  	94.2946
1886.62  	94.291
1899.55  	94.2132
1912.48  	94.3298
1925.42  	94.2711
1938.35  	94.2448
1951.28  	94.4051
1964.21  	94.4535
1977.14  	94.5123
1990.08  	94.3067
2003.01  	94.3579
2015.94  	94.5736
2028.87  	94.7159
2041.8  	94.3255
2054.74  	94.2101
2067.67  	93.9416
2080.6  	93.7828
2093.53  	93.8881
2106.46  	93.9025
2119.39  	93.6781
2132.33  	93.7837
2145.26  	93.894
2158.19  	94.7495
2171.12  	94.1963
2184.05  	93.5655
2196.99  	93.5313
2209.92  	93.8411
2222.85  	93.6184
2235.78  	93.5324
2248.71  	93.4383
2261.65  	93.4753
2274.58  	93.1971
2287.51  	93.1071
2300.44  	92.9733
2313.37  	92.9533
2326.31  	93.0261
2339.24  	93.0488
2352.17  	92.9255
2365.1  	92.8266
2378.03  	92.7007
2390.96  	92.4605
2403.9  	92.2767
2416.83  	92.4065
2429.76  	92.4409
2442.69  	92.4998
2455.62  	92.4872
2468.56  	92.217
2481.49  	92.2117
2494.42  	92.1055
2507.35  	91.8736
2520.28  	91.71
2533.22  	91.7317
2546.15  	91.7154
2559.08  	91.7343
2572.01  	91.3956
2584.94  	91.309
2597.88  	91.3548
2610.81  	91.2867
2623.74  	91.2991
2636.67  	91.1396
2649.6  	90.6062
2662.53  	90.3015
2675.47  	90.8823
2688.4  	90.7202
2701.33  	90.2682
2714.26  	90.0968
2727.19  	90.0603
2740.13  	90.2063
2753.06  	90.0791
2765.99  	89.8517
2778.92  	89.5491
2791.85  	89.2258
2804.79  	88.7653
2817.72  	88.2409
2830.65  	87.6249
2843.58  	86.4991
2856.51  	84.4349
2869.45  	81.8612
2882.38  	79.7196
2895.31  	81.0309
2908.24  	81.6687
2921.17  	80.7372
2934.1  	79.883
2947.04  	82.2452
2959.97  	72.82
2972.9  	58.955
2985.83  	82.6878
2998.76  	89.0424
3011.7  	90.2088
3024.63  	90.4974
3037.56  	90.4975
3050.49  	90.2388
3063.42  	90.0234
3076.36  	89.6807
3089.29  	89.2735
3102.22  	88.7669
3115.15  	88.1738
3128.08  	87.6141
3141.02  	86.7877
3153.95  	85.9078
3166.88  	84.8661
3179.81  	83.7061
3192.74  	82.3572
3205.67  	80.986
3218.61  	79.5009
3231.54  	77.9536
3244.47  	76.5984
3257.4  	75.1884
3270.33  	74.1161
3283.27  	73.2771
3296.2  	72.4458
3309.13  	71.9808
3322.06  	71.7281
3334.99  	71.7275
3347.93  	71.9791
3360.86  	72.7648
3373.79  	73.992
3386.72  	75.4293
3399.65  	76.9363
3412.59  	78.3673
3425.52  	80.1547
3438.45  	81.6887
3451.38  	83.0382
3464.31  	84.5738
3477.24  	85.8187
3490.18  	87.0006
3503.11  	87.9626
3516.04  	89.0805
3528.97  	89.7867
3541.9  	90.4547
3554.84  	91.0196
3567.77  	91.492
3580.7  	91.7731
3593.63  	92.0322
3606.56  	92.2029
3619.5  	92.4039
3632.43  	92.4607
3645.36  	92.5223
3658.29  	92.6292
3671.22  	92.617
3684.15  	92.6994
3697.09  	92.7256
3710.02  	92.6796
3722.95  	92.6482
3735.88  	92.6458
3748.81  	92.6579
3761.75  	92.7948
3774.68  	92.7549
3787.61  	92.613
3800.54  	92.5018
3813.47  	92.5816
3826.41  	92.5259
3839.34  	92.5368
3852.27  	92.5039
3865.2  	92.5829
3878.13  	92.5801
3891.07  	92.5259
3904  	92.5504
3916.93  	92.6231
3929.86  	92.5332
3942.79  	92.5745
3955.72  	92.4891
3968.66  	92.5439
3981.59  	92.4749
3994.52  	92.4498
4000.27  	92.4795