File: FTIR/MoS2_Pristine_1.txt
##TITLE=No Description
##DATA TYPE=INFRARED SPECTRUM
##XUNITS=1/CM
##YUNITS=%T
399.452  	15.5508
412.384  	13.737
425.316  	13.3049
438.248  	13.4169
451.18  	12.7696
464.112  	9.790154
477.043  	12.9271
489.975  	12.204
502.907  	11.9662
515.839  	11.5687
528.771  	11.5949
541.703  	11.1651
554.635  	10.6843
567.567  	10.2145
580.499  	9.603133
593.431  	9.210300
606.362  	9.360345
619.294  	9.310158
632.226  	9.289389
645.158  	9.631011
658.09  	9.593768
671.022  	9.556675
683.954  	9.679040
696.886  	9.608419
709.818  	9.446305
722.75  	9.122087
735.681  	9.007742
748.613  	8.823598
761.545  	8.714942
774.477  	8.748744
787.409  	8.797664
800.341  	8.894714
813.273  	8.985320
826.205  	9.058435
839.137  	9.194891
852.069  	9.084317
865.001  	9.091368
877.932  	8.946052
890.864  	8.865130
903.796  	8.729804
916.728  	8.666123
929.66  	8.807043
942.592  	8.745238
955.524  	8.683950
968.456  	8.763359
981.388  	8.736022
994.32  	8.773527
1007.25  	8.692274
1020.18  	8.360937
1033.12  	8.129187
1046.05  	8.114451
1058.98  	8.201989
1071.91  	8.361560
1084.84  	8.305890
1097.77  	8.193603
1110.71  	8.168288
1123.64  	8.174310
1136.57  	8.227053
1149.5  	8.369533
1162.43  	8.533040
1175.37  	8.712656
1188.3  	8.872567
1201.23  	9.018436
1214.16  	9.208298
1227.09  	9.389938
1240.03  	9.603208
1252.96  	9.856699
1265.89  	10.0324
1278.82  	10.1661
1291.75  	10.2608
1304.69  	10.3452
1317.62  	10.435
1330.55  	10.5447
1343.48  	10.6188
1356.41  	10.6486
1369.34  	10.6637
1382.28  	10.709
1395.21  	10.7973
1408.14  	10.8999
1421.07  	11.1978
1434  	11.2167
1446.94  	11.2088
1459.87  	11.3255
1472.8  	11.1401
1485.73  	11.1443
1498.66  	11.2292
1511.6  	11.1837
1524.53  	11.1501
1537.46  	10.9344
1550.39  	11.1367
1563.32  	11.0598
1576.26  	11.0309
1589.19  	11.0222
1602.12  	11.0783
1615.05  	10.9339
1627.98  	11.1827
1640.91  	11.2907
1653.85  	11.5816
1666.78  	11.2438
1679.71  	11.3278
1692.64  	11.4208
1705.57  	11.5001
1718.51  	11.7082
1731.44  	11.6337
1744.37  	11.7858
1757.3  	11.8979
1770.23  	11.9235
1783.17  	12.0655
1796.1  	12.1359
1809.03  	12.2516
1821.96  	12.3441
1834.89  	12.4299
1847.83  	12.5224
1860.76  	12.7532
1873.69  	12.8203
1886.62  	12.9065
1899.55  	13.0473
1912.48  	13.2761
1925.42  	13.5685
1938.35  	13.7281
1951.28  	14.1347
1964.21  	15.1001
1977.14  	15.8668
1990.08  	15.2284
2003.01  	15.3634
2015.94  	15.8121
2028.87  	16.1799
2041.8  	15.3955
2054.74  	14.6795
2067.67  	14.3284
2080.6  	14.1154
2093.53  	13.9729
2106.46  	14.1866
2119.39  	14.0195
2132.33  	14.5785
2145.26  	15.0698
2158.19  	17.2105
2171.12  	15.7344
2184.05  	15.4675
2196.99  	15.2934
2209.92  	14.9075
2222.85  	14.6027
2235.78  	14.6272
2248.71  	14.3946
2261.65  	14.3759
2274.58  	14.0686
2287.51  	13.9932
2300.44  	13.8948
2313.37  	13.9172
2326.31  	13.8269
2339.24  	13.9833
2352.17  	13.8153
2365.1  	14.0509
2378.03  	14.0809
2390.96  	14.0665
2403.9  	14.1151
2416.83  	14.1116
2429.76  	14.1933
2442.69  	14.2615
2455.62  	14.2833
2468.56  	14.2501
2481.49  	14.2847
2494.42  	14.3199
2507.35  	14.4151
2520.28  	14.425
2533.22  	14.4077
2546.15  	14.4478
2559.08  	14.479
2572.01  	14.468
2584.94  	14.4998
2597.88  	14.5222
2610.81  	14.5531
2623.74  	14.5753
2636.67  	14.6209
2649.6  	14.6747
2662.53  	14.7256
2675.47  	14.7467
2688.4  	14.7458
2701.33  	14.7528
2714.26  	14.8123
2727.19  	14.7976
2740.13  	14.8023
2753.06  	14.8305
2765.99  	14.8396
2778.92  	14.8481
2791.85  	14.8729
2804.79  	14.8432
2817.72  	14.8275
2830.65  	14.7913
2843.58  	14.7689
2856.51  	14.7753
2869.45  	14.8336
2882.38  	14.8618
2895.31  	14.8456
2908.24  	14.7533
2921.17  	14.7429
2934.1  	14.8762
2947.04  	14.9588
2959.97  	15.0227
2972.9  	15.1264
2985.83  	15.223
2998.76  	15.2808
3011.7  	15.2817
3024.63  	15.3127
3037.56  	15.2917
3050.49  	15.4145
3063.42  	15.4379
3076.36  	15.3861
3089.29  	15.5061
3102.22  	15.523
3115.15  	15.6806
3128.08  	15.6296
3141.02  	15.6753
3153.95  	15.7108
3166.88  	15.8067
3179.81  	15.971
3192.74  	15.9685
3205.67  	16.1663
3218.61  	16.2374
3231.54  	16.4332
3244.47  	16.604
3257.4  	16.6483
3270.33  	16.6236
3283.27  	16.5137
3296.2  	16.4431
3309.13  	16.4147
3322.06  	16.3933
3334.99  	16.3594
3347.93  	16.3857
3360.86  	16.4032
3373.79  	16.5329
3386.72  	16.4839
3399.65  	16.5455
3412.59  	16.6106
3425.52  	16.679
3438.45  	16.662
3451.38  	16.7668
3464.31  	16.8775
3477.24  	17.0446
3490.18  	17.1417
3503.11  	17.2169
3516.04  	17.1673
3528.97  	17.2816
3541.9  	17.267
3554.84  	17.3989
3567.77  	17.355
3580.7  	17.3024
3593.63  	17.281
3606.56  	17.3444
3619.5  	17.3459
3632.43  	17.5531
3645.36  	17.3874
3658.29  	17.7863
3671.22  	17.9467
3684.15  	17.6448
3697.09  	17.6671
3710.02  	17.544
3722.95  	17.7645
3735.88  	17.6307
3748.81  	17.4746
3761.75  	18.1146
3774.68  	17.9379
3787.61  	18.0283
3800.54  	17.7131
3813.47  	17.9487
3826.41  	17.9976
3839.34  	18.1507
3852.27  	17.5207
3865.2  	18.09
3878.13  	18.0706
3891.07  	18.044
3904  	18.2451
3916.93  	18.2427
3929.86  	18.2442
3942.79  	18.3319
3955.72  	18.4119
3968.66  	18.3721
3981.59  	18.4604
3994.52  	18.412
4000.27  	18.4389