File: FTIR/Silica+PDA_Seco_1.txt
##TITLE=No Description
##DATA TYPE=INFRARED SPECTRUM
##XUNITS=1/CM
##YUNITS=%T
399.452  	48.811
412.384  	42.5846
425.316  	36.7278
438.248  	32.15
451.18  	30.7154
464.112  	33.7525
477.043  	45.5582
489.975  	62.9495
502.907  	72.1219
515.839  	76.3889
528.771  	77.7074
541.703  	77.6855
554.635  	77.7179
567.567  	78.2663
580.499  	79.349
593.431  	80.7927
606.362  	81.9337
619.294  	83.0956
632.226  	83.9217
645.158  	84.4991
658.09  	85.1434
671.022  	85.5299
683.954  	85.7757
696.886  	85.8844
709.818  	85.8044
722.75  	85.661
735.681  	85.332
748.613  	84.8944
761.545  	84.2319
774.477  	81.1536
787.409  	75.4736
800.341  	73.8239
813.273  	75.6168
826.205  	79.3401
839.137  	83.9541
852.069  	87.9437
865.001  	89.3546
877.932  	88.8936
890.864  	87.3652
903.796  	84.9071
916.728  	82.3631
929.66  	79.4144
942.592  	76.9007
955.524  	75.9319
968.456  	77.023
981.388  	79.1873
994.32  	76.8751
1007.25  	65.6095
1020.18  	48.6592
1033.12  	35.7926
1046.05  	29.3879
1058.98  	27.0026
1071.91  	27.2882
1084.84  	29.7061
1097.77  	36.1609
1110.71  	49.2365
1123.64  	59.0896
1136.57  	62.7584
1149.5  	65.0019
1162.43  	67.0038
1175.37  	69.3692
1188.3  	71.9042
1201.23  	74.4942
1214.16  	77.4409
1227.09  	80.8043
1240.03  	84.9208
1252.96  	89.7731
1265.89  	93.2202
1278.82  	94.7394
1291.75  	95.4449
1304.69  	95.8985
1317.62  	96.1826
1330.55  	96.42
1343.48  	96.5637
1356.41  	96.6853
1369.34  	96.7494
1382.28  	96.8233
1395.21  	96.8421
1408.14  	96.9584
1421.07  	96.9322
1434  	96.9192
1446.94  	96.9574
1459.87  	96.9621
1472.8  	96.9814
1485.73  	96.9976
1498.66  	97.0405
1511.6  	96.9924
1524.53  	97.0433
1537.46  	97.0912
1550.39  	97.0004
1563.32  	96.9577
1576.26  	96.9333
1589.19  	96.6881
1602.12  	96.3779
1615.05  	95.9091
1627.98  	95.6582
1640.91  	95.906
1653.85  	96.4322
1666.78  	96.8645
1679.71  	97.2676
1692.64  	97.6515
1705.57  	97.8624
1718.51  	98.043
1731.44  	98.2252
1744.37  	98.313
1757.3  	98.4114
1770.23  	98.4797
1783.17  	98.5296
1796.1  	98.4981
1809.03  	98.5976
1821.96  	98.6382
1834.89  	98.6008
1847.83  	98.4963
1860.76  	98.5692
1873.69  	98.5739
1886.62  	98.6324
1899.55  	98.749
1912.48  	98.8539
1925.42  	98.8622
1938.35  	98.9435
1951.28  	99.1549
1964.21  	99.182
1977.14  	98.8453
1990.08  	98.7716
2003.01  	99.1836
2015.94  	99.0305
2028.87  	99.0671
2041.8  	99.5085
2054.74  	99.1255
2067.67  	99.3464
2080.6  	99.0274
2093.53  	99.2728
2106.46  	99.0766
2119.39  	99.128
2132.33  	99.5215
2145.26  	99.6766
2158.19  	99.8471
2171.12  	99.3944
2184.05  	98.9716
2196.99  	98.5559
2209.92  	98.8594
2222.85  	98.6101
2235.78  	98.6377
2248.71  	98.8532
2261.65  	98.5773
2274.58  	98.4796
2287.51  	98.563
2300.44  	98.6421
2313.37  	98.7016
2326.31  	98.9702
2339.24  	99.1185
2352.17  	99.0389
2365.1  	98.7515
2378.03  	98.7113
2390.96  	98.8391
2403.9  	98.9937
2416.83  	98.9517
2429.76  	98.9592
2442.69  	98.8458
2455.62  	98.8372
2468.56  	98.854
2481.49  	98.934
2494.42  	98.8886
2507.35  	98.888
2520.28  	98.8275
2533.22  	98.8786
2546.15  	98.8431
2559.08  	98.7685
2572.01  	98.7552
2584.94  	98.7184
2597.88  	98.7614
2610.81  	98.6938
2623.74  	98.6782
2636.67  	98.5561
2649.6  	98.6127
2662.53  	98.6704
2675.47  	98.7015
2688.4  	98.6865
2701.33  	98.6578
2714.26  	98.6517
2727.19  	98.6251
2740.13  	98.6146
2753.06  	98.615
2765.99  	98.5525
2778.92  	98.5533
2791.85  	98.512
2804.79  	98.4331
2817.72  	98.4672
2830.65  	98.3844
2843.58  	98.4203
2856.51  	98.3504
2869.45  	98.239
2882.38  	98.0921
2895.31  	98.1721
2908.24  	98.0451
2921.17  	98.1062
2934.1  	97.8688
2947.04  	97.8409
2959.97  	97.7027
2972.9  	97.5655
2985.83  	97.4961
2998.76  	97.4464
3011.7  	97.3445
3024.63  	97.2868
3037.56  	97.2323
3050.49  	97.1072
3063.42  	97.0092
3076.36  	96.9823
3089.29  	96.8332
3102.22  	96.6627
3115.15  	96.6377
3128.08  	96.4893
3141.02  	96.3966
3153.95  	96.2981
3166.88  	96.241
3179.81  	96.1631
3192.74  	95.9814
3205.67  	95.9044
3218.61  	95.8019
3231.54  	95.7932
3244.47  	95.6886
3257.4  	95.6047
3270.33  	95.5497
3283.27  	95.5435
3296.2  	95.5886
3309.13  	95.5121
3322.06  	95.455
3334.99  	95.4625
3347.93  	95.4216
3360.86  	95.3383
3373.79  	95.3491
3386.72  	95.4789
3399.65  	95.4914
3412.59  	95.4154
3425.52  	95.4885
3438.45  	95.6245
3451.38  	95.709
3464.31  	95.7738
3477.24  	95.9681
3490.18  	95.9415
3503.11  	96.0607
3516.04  	96.3726
3528.97  	96.5684
3541.9  	96.5787
3554.84  	96.9118
3567.77  	96.7108
3580.7  	97.0938
3593.63  	97.2997
3606.56  	97.2173
3619.5  	97.3249
3632.43  	97.3319
3645.36  	97.5443
3658.29  	97.7855
3671.22  	98.0331
3684.15  	98.4212
3697.09  	98.6072
3710.02  	98.761
3722.95  	98.857
3735.88  	98.8174
3748.81  	98.851
3761.75  	98.7685
3774.68  	98.882
3787.61  	99.0449
3800.54  	99.1738
3813.47  	99.0722
3826.41  	99.0837
3839.34  	98.9821
3852.27  	99.2466
3865.2  	99.1204
3878.13  	99.1534
3891.07  	99.0882
3904  	98.901
3916.93  	98.9862
3929.86  	99.1134
3942.79  	99.0133
3955.72  	99.1031
3968.66  	99.1581
3981.59  	99.1461
3994.52  	99.1419
4000.27  	99.1919