File: FTIR/Silica_1.txt
##TITLE=No Description
##DATA TYPE=INFRARED SPECTRUM
##XUNITS=1/CM
##YUNITS=%T
399.452  	11.5604
412.384  	9.494949
425.316  	9.462397
438.248  	10.3515
451.18  	13.7282
464.112  	20.6537
477.043  	32.6687
489.975  	42.302
502.907  	45.5398
515.839  	44.296
528.771  	41.9682
541.703  	40.1952
554.635  	40.1331
567.567  	40.548
580.499  	41.3917
593.431  	42.136
606.362  	42.8759
619.294  	43.407
632.226  	43.2356
645.158  	43.4084
658.09  	43.5819
671.022  	43.9706
683.954  	44.3534
696.886  	44.8336
709.818  	45.3747
722.75  	45.8906
735.681  	46.5273
748.613  	47.1578
761.545  	47.373
774.477  	45.6761
787.409  	45.7817
800.341  	48.6578
813.273  	53.0501
826.205  	57.9457
839.137  	62.1096
852.069  	63.7907
865.001  	64.3797
877.932  	64.3923
890.864  	63.6535
903.796  	61.9386
916.728  	59.5496
929.66  	56.2296
942.592  	53.2834
955.524  	52.3818
968.456  	54.1694
981.388  	57.0857
994.32  	53.0651
1007.25  	40.7552
1020.18  	25.8354
1033.12  	15.2534
1046.05  	10.8603
1058.98  	10.2431
1071.91  	11.9726
1084.84  	16.0959
1097.77  	26.189
1110.71  	43.0762
1123.64  	50.2681
1136.57  	52.7184
1149.5  	54.6078
1162.43  	56.5359
1175.37  	59.02
1188.3  	61.7553
1201.23  	64.6155
1214.16  	67.9938
1227.09  	72.3068
1240.03  	78.1069
1252.96  	84.9143
1265.89  	89.0076
1278.82  	90.5743
1291.75  	91.3839
1304.69  	91.8091
1317.62  	91.9838
1330.55  	92.0921
1343.48  	92.1323
1356.41  	92.1275
1369.34  	92.0442
1382.28  	91.8949
1395.21  	91.6112
1408.14  	91.2208
1421.07  	90.4353
1434  	89.658
1446.94  	89.1601
1459.87  	89.0532
1472.8  	89.2725
1485.73  	89.6414
1498.66  	90.1667
1511.6  	90.4593
1524.53  	90.4867
1537.46  	90.2345
1550.39  	89.8229
1563.32  	89.237
1576.26  	88.2691
1589.19  	86.6239
1602.12  	84.021
1615.05  	80.4832
1627.98  	77.7319
1640.91  	77.1957
1653.85  	78.9603
1666.78  	81.4551
1679.71  	84.2742
1692.64  	87.0481
1705.57  	89.2527
1718.51  	90.9623
1731.44  	92.1324
1744.37  	92.9133
1757.3  	93.5951
1770.23  	94.0027
1783.17  	94.2346
1796.1  	94.4349
1809.03  	94.7025
1821.96  	94.765
1834.89  	94.8112
1847.83  	94.8426
1860.76  	94.9409
1873.69  	94.9865
1886.62  	95.1758
1899.55  	95.3536
1912.48  	95.6184
1925.42  	95.9778
1938.35  	95.7699
1951.28  	96.2662
1964.21  	96.1205
1977.14  	96.1163
1990.08  	95.7425
2003.01  	95.4983
2015.94  	95.3409
2028.87  	95.7202
2041.8  	95.1542
2054.74  	95.1718
2067.67  	94.765
2080.6  	94.6455
2093.53  	94.7611
2106.46  	94.816
2119.39  	94.7925
2132.33  	95.1733
2145.26  	95.153
2158.19  	95.5438
2171.12  	94.7136
2184.05  	95.0647
2196.99  	94.6461
2209.92  	94.5452
2222.85  	94.6012
2235.78  	94.6983
2248.71  	94.3327
2261.65  	94.5831
2274.58  	94.7543
2287.51  	94.8536
2300.44  	94.92
2313.37  	94.9615
2326.31  	95.0502
2339.24  	95.0407
2352.17  	95.1743
2365.1  	95.2745
2378.03  	95.4817
2390.96  	95.7483
2403.9  	95.7676
2416.83  	95.8933
2429.76  	96.0681
2442.69  	96.032
2455.62  	96.1567
2468.56  	96.1426
2481.49  	96.0899
2494.42  	96.0698
2507.35  	96.2165
2520.28  	96.0677
2533.22  	96.0485
2546.15  	96.0427
2559.08  	95.9333
2572.01  	95.7201
2584.94  	95.6683
2597.88  	95.5572
2610.81  	95.4118
2623.74  	95.3502
2636.67  	95.2728
2649.6  	95.2508
2662.53  	95.2654
2675.47  	95.209
2688.4  	95.1292
2701.33  	95.1426
2714.26  	94.9768
2727.19  	94.8276
2740.13  	94.6904
2753.06  	94.4865
2765.99  	94.3032
2778.92  	94.036
2791.85  	93.7968
2804.79  	93.5707
2817.72  	93.2924
2830.65  	92.9742
2843.58  	92.6267
2856.51  	92.3151
2869.45  	91.9732
2882.38  	91.5291
2895.31  	91.093
2908.24  	90.668
2921.17  	90.1018
2934.1  	89.5494
2947.04  	88.9126
2959.97  	88.1863
2972.9  	87.4301
2985.83  	86.5428
2998.76  	85.6219
3011.7  	84.5178
3024.63  	83.4645
3037.56  	82.2391
3050.49  	80.985
3063.42  	79.7314
3076.36  	78.2233
3089.29  	76.7499
3102.22  	75.1514
3115.15  	73.4772
3128.08  	71.6383
3141.02  	69.7363
3153.95  	67.791
3166.88  	65.8337
3179.81  	63.9505
3192.74  	62.1386
3205.67  	60.6204
3218.61  	59.3819
3231.54  	58.2193
3244.47  	57.5396
3257.4  	57.0563
3270.33  	56.5935
3283.27  	56.4466
3296.2  	56.1264
3309.13  	55.8598
3322.06  	55.7185
3334.99  	55.4742
3347.93  	55.4441
3360.86  	55.4246
3373.79  	55.7132
3386.72  	56.1183
3399.65  	56.682
3412.59  	57.7944
3425.52  	59.0481
3438.45  	60.2997
3451.38  	62.0559
3464.31  	63.6002
3477.24  	65.1629
3490.18  	66.9809
3503.11  	68.618
3516.04  	70.6038
3528.97  	72.4612
3541.9  	74.4319
3554.84  	76.1549
3567.77  	77.8806
3580.7  	79.7907
3593.63  	81.4062
3606.56  	82.9353
3619.5  	84.6059
3632.43  	86.2805
3645.36  	88.2113
3658.29  	90.2322
3671.22  	92.58
3684.15  	94.43
3697.09  	95.2373
3710.02  	96.0863
3722.95  	96.2823
3735.88  	96.4111
3748.81  	96.8359
3761.75  	97.0836
3774.68  	97.4085
3787.61  	97.5387
3800.54  	97.5266
3813.47  	97.5755
3826.41  	97.7882
3839.34  	97.7076
3852.27  	97.5632
3865.2  	97.6182
3878.13  	97.8217
3891.07  	97.5388
3904  	97.4049
3916.93  	97.6134
3929.86  	97.6593
3942.79  	97.6822
3955.72  	97.7091
3968.66  	97.6878
3981.59  	97.7934
3994.52  	97.7658
4000.27  	97.7654