File: FTIR/Silica+PDA_1.txt
##TITLE=No Description
##DATA TYPE=INFRARED SPECTRUM
##XUNITS=1/CM
##YUNITS=%T
399.452  	19.8021
412.384  	18.1332
425.316  	17.844
438.248  	17.2358
451.18  	18.5529
464.112  	21.6058
477.043  	29.8629
489.975  	36.4813
502.907  	37.0716
515.839  	36.0925
528.771  	35.3464
541.703  	35.0095
554.635  	35.4738
567.567  	36.3542
580.499  	36.9359
593.431  	37.7561
606.362  	38.7413
619.294  	39.6565
632.226  	40.1853
645.158  	41.1642
658.09  	42.1104
671.022  	43.2295
683.954  	44.4668
696.886  	45.7107
709.818  	47.1938
722.75  	48.6507
735.681  	50.2522
748.613  	51.8536
761.545  	53.4634
774.477  	54.4936
787.409  	55.7603
800.341  	58.1162
813.273  	61.2919
826.205  	64.6103
839.137  	67.6021
852.069  	69.8557
865.001  	71.5567
877.932  	73.2096
890.864  	74.4356
903.796  	75.1178
916.728  	75.4257
929.66  	75.2092
942.592  	75.0877
955.524  	75.5672
968.456  	77.1666
981.388  	79.7753
994.32  	81.4128
1007.25  	80.2349
1020.18  	76.2665
1033.12  	68.1234
1046.05  	56.8158
1058.98  	45.8399
1071.91  	37.361
1084.84  	31.1703
1097.77  	30.579
1110.71  	46.3203
1123.64  	58.1735
1136.57  	62.1161
1149.5  	64.167
1162.43  	65.811
1175.37  	67.8486
1188.3  	70.1833
1201.23  	72.544
1214.16  	75.1082
1227.09  	78.1504
1240.03  	82.0447
1252.96  	86.2221
1265.89  	88.3899
1278.82  	89.211
1291.75  	89.5943
1304.69  	89.8186
1317.62  	89.9973
1330.55  	90.093
1343.48  	90.1242
1356.41  	90.1197
1369.34  	90.13
1382.28  	90.1601
1395.21  	90.1587
1408.14  	90.1209
1421.07  	90.032
1434  	89.8719
1446.94  	89.7143
1459.87  	89.6116
1472.8  	89.4738
1485.73  	89.2863
1498.66  	88.8799
1511.6  	88.5064
1524.53  	88.2693
1537.46  	87.9027
1550.39  	87.2376
1563.32  	86.4277
1576.26  	85.0645
1589.19  	82.8245
1602.12  	79.8642
1615.05  	75.8838
1627.98  	72.5522
1640.91  	72.2379
1653.85  	74.9683
1666.78  	78.1848
1679.71  	81.9954
1692.64  	85.6175
1705.57  	88.484
1718.51  	90.7383
1731.44  	92.3379
1744.37  	93.3714
1757.3  	94.2256
1770.23  	94.819
1783.17  	95.1694
1796.1  	95.4216
1809.03  	95.6412
1821.96  	95.7687
1834.89  	95.8857
1847.83  	95.8454
1860.76  	95.9291
1873.69  	96.0436
1886.62  	96.0415
1899.55  	96.0785
1912.48  	96.1321
1925.42  	96.097
1938.35  	96.1461
1951.28  	96.2028
1964.21  	96.3043
1977.14  	96.2176
1990.08  	96.0296
2003.01  	96.4178
2015.94  	95.4674
2028.87  	96.0134
2041.8  	95.5807
2054.74  	95.2504
2067.67  	95.1799
2080.6  	95.1338
2093.53  	95.0426
2106.46  	94.8398
2119.39  	94.8717
2132.33  	94.8355
2145.26  	95.4669
2158.19  	95.8664
2171.12  	95.5449
2184.05  	95.6329
2196.99  	95.4652
2209.92  	95.3194
2222.85  	95.7583
2235.78  	95.444
2248.71  	95.9411
2261.65  	95.863
2274.58  	96.0866
2287.51  	95.9747
2300.44  	96.0775
2313.37  	96.0472
2326.31  	96.2572
2339.24  	96.3514
2352.17  	96.5066
2365.1  	96.5646
2378.03  	96.6203
2390.96  	96.7708
2403.9  	96.7974
2416.83  	96.8093
2429.76  	96.9073
2442.69  	96.8851
2455.62  	96.9867
2468.56  	97.0514
2481.49  	97.1545
2494.42  	97.1245
2507.35  	97.266
2520.28  	97.2894
2533.22  	97.2461
2546.15  	97.3494
2559.08  	97.3741
2572.01  	97.3278
2584.94  	97.4175
2597.88  	97.3711
2610.81  	97.3509
2623.74  	97.3537
2636.67  	97.2978
2649.6  	97.1937
2662.53  	97.1169
2675.47  	97.0536
2688.4  	96.9678
2701.33  	96.8373
2714.26  	96.7798
2727.19  	96.6298
2740.13  	96.5364
2753.06  	96.3513
2765.99  	96.2278
2778.92  	96.0245
2791.85  	95.8742
2804.79  	95.6022
2817.72  	95.3567
2830.65  	95.0231
2843.58  	94.7191
2856.51  	94.3365
2869.45  	93.9253
2882.38  	93.5346
2895.31  	92.9982
2908.24  	92.4139
2921.17  	91.6906
2934.1  	91.0466
2947.04  	90.3414
2959.97  	89.4337
2972.9  	88.5249
2985.83  	87.5066
2998.76  	86.3971
3011.7  	85.1103
3024.63  	83.6186
3037.56  	82.089
3050.49  	80.2598
3063.42  	78.4293
3076.36  	76.5304
3089.29  	74.3173
3102.22  	72.0354
3115.15  	69.7201
3128.08  	67.2796
3141.02  	64.7469
3153.95  	62.3773
3166.88  	59.9961
3179.81  	57.8128
3192.74  	55.8118
3205.67  	53.9956
3218.61  	52.8393
3231.54  	51.7847
3244.47  	51.082
3257.4  	50.6739
3270.33  	50.3583
3283.27  	50.239
3296.2  	50.2075
3309.13  	50.0917
3322.06  	50.052
3334.99  	49.9597
3347.93  	49.9989
3360.86  	50.1876
3373.79  	50.7145
3386.72  	51.387
3399.65  	52.4432
3412.59  	53.6597
3425.52  	55.3122
3438.45  	57.1805
3451.38  	58.9429
3464.31  	60.8592
3477.24  	62.8666
3490.18  	64.6521
3503.11  	66.5442
3516.04  	68.7481
3528.97  	70.6622
3541.9  	72.8754
3554.84  	74.807
3567.77  	76.6544
3580.7  	78.8699
3593.63  	80.6849
3606.56  	82.4903
3619.5  	84.275
3632.43  	86.1127
3645.36  	88.2116
3658.29  	90.5639
3671.22  	92.5981
3684.15  	94.599
3697.09  	95.5701
3710.02  	96.229
3722.95  	96.7046
3735.88  	96.8777
3748.81  	97.1626
3761.75  	97.4489
3774.68  	97.7033
3787.61  	97.7985
3800.54  	97.9181
3813.47  	97.8354
3826.41  	97.9173
3839.34  	97.825
3852.27  	98.0773
3865.2  	98.0406
3878.13  	97.9782
3891.07  	97.9988
3904  	97.9584
3916.93  	98.073
3929.86  	98.0478
3942.79  	97.9776
3955.72  	98.0403
3968.66  	97.9959
3981.59  	98.0953
3994.52  	98.0529
4000.27  	98.0943